power (mW)	FWHM	peak value	peak location
26.142584	76.686219	133.497222	0.000000
26.089429	90.529175	111.652222	0.000000
25.802142	90.529175	111.652222	0.000000
26.002857	3.495162	1417.497778	565.449891
25.713183	4.194194	2643.245000	565.449891
26.572731	3.844918	2279.161667	565.449891
26.795784	3.844918	2279.161667	565.449891
26.550663	4.543426	2536.447222	565.799385
26.966384	4.893226	1881.097222	565.449891
26.900897	4.543426	2237.898889	565.799385
26.753593	4.893226	1570.412778	565.449891
26.829096	4.194194	2859.267778	565.449891
26.746456	4.194194	2453.921667	565.449891
26.756100	4.543426	1517.013889	565.449891
26.475249	85.636836	160.196667	0.000000
26.633504	54.033557	121.361111	0.000000
26.558365	111.304670	128.642778	0.000000
26.647454	66.967728	123.788333	0.000000
26.596941	115.720854	133.497222	0.000000
26.694617	41.094702	128.642778	0.000000
26.856143	41.340132	138.351667	0.000000
27.281499	18.284964	140.778889	0.000000
26.891105	67.018746	138.351667	0.000000
27.188669	102.560993	167.478333	0.000000
26.661464	123.422490	157.769444	0.000000
26.817641	138.697423	148.060556	0.000000
26.724595	4.542859	2366.541667	566.148836
26.862740	4.193146	2820.432222	566.148836
26.920036	4.892004	1769.445000	566.148836
26.466854	5.241760	2162.655000	565.799385
26.457554	5.590861	1868.961111	566.148836
26.111775	4.192622	2941.793333	566.498243
26.129118	5.591559	1868.961111	565.799385
26.207601	4.542859	2364.114444	566.148836
26.085619	4.542859	2534.020000	566.148836
26.237770	5.591559	1985.467778	565.799385
26.569467	5.591559	1985.467778	565.799385
26.122381	4.193670	2631.108889	565.799385
26.256430	4.892615	1495.168889	565.799385
26.403581	4.193146	2774.315000	566.148836
26.716891	4.892004	1604.393889	566.148836
26.642866	68.813368	131.070000	0.000000
26.915324	59.581049	123.788333	0.000000
26.839207	59.096568	145.633333	0.000000
27.135463	74.911001	157.769444	0.000000
27.009060	62.624790	145.633333	0.000000
26.821669	20.131329	133.497222	0.000000
26.818047	117.904093	169.905556	0.000000
26.960063	78.411951	155.342222	0.000000
26.948204	50.925217	155.342222	0.000000
26.675686	135.162530	133.497222	0.000000
26.927050	36.337767	152.915000	0.000000
26.708924	86.903206	135.924444	0.000000
26.880351	126.774220	135.924444	0.000000
26.963473	77.012323	128.642778	0.000000
27.011542	4.892615	1296.136667	565.799385
26.984424	4.893226	1570.412778	565.449891
26.769062	6.291289	1388.371111	565.799385
27.048112	4.893226	2485.475556	565.449891
26.727790	4.893226	2485.475556	565.449891
26.242134	4.893226	1708.764444	565.799385
25.885677	4.892615	1662.647222	565.799385
26.356679	4.892615	2167.509444	565.799385
26.453674	5.242414	1643.229444	565.449891
26.258577	5.242414	1949.059444	565.799385
26.045308	4.893226	2111.683333	565.449891
26.136753	4.543426	2626.254444	565.799385
26.161512	5.242414	2529.165556	565.799385
26.552747	66.307213	148.060556	0.000000
26.448266	3.695073	126.215556	0.000000
26.165694	116.861015	152.915000	0.000000
26.172745	143.582156	118.933889	0.000000
26.497664	85.317703	123.788333	0.000000
26.624696	103.242163	128.642778	0.000000
26.432302	53.477060	165.051111	0.000000
26.848025	117.054164	143.206111	0.000000
26.461795	46.550764	111.652222	0.000000
26.760468	109.105899	140.778889	0.000000
27.254304	147.825657	135.924444	0.000000
26.993301	4.893226	1390.798333	565.449891
27.101252	5.592257	1512.159444	565.449891
26.958408	4.543426	2490.330000	565.799385
27.069202	5.591559	1720.900556	565.799385
27.225998	4.892615	2148.091667	565.799385
27.131713	4.893226	1512.159444	565.449891
27.016887	5.242414	1415.070556	565.449891
26.748192	4.893226	1529.150000	565.449891
26.524996	4.893226	1543.713333	565.449891
26.948138	4.893226	2201.490556	565.799385
26.478796	4.893226	2060.711667	565.449891
26.524158	5.590162	582.533333	565.799385
26.670416	26.395580	131.070000	0.000000
27.037361	56.660804	126.215556	0.000000
26.403374	141.769298	199.032222	0.000000
25.984746	53.014219	135.924444	0.000000
26.482604	98.421092	191.750556	0.000000
25.926748	53.197324	138.351667	0.000000
26.046768	38.940118	155.342222	0.000000
26.336283	3.845397	1332.545000	564.750771
26.069588	4.893836	1002.442778	565.100353
26.442923	4.543993	1893.233333	565.449891
26.021654	5.243723	854.382222	565.100353
26.131197	4.543993	1235.456111	565.100353
26.183442	4.893226	740.302778	565.449891
26.752279	4.543993	1179.630000	565.449891
25.686687	5.593653	1000.015556	565.100353
