power (mW)	FWHM	peak value	peak location
0.241192	31.775689	105.584167	0.000000
0.220460	149.569420	101.943333	0.000000
0.230279	149.569420	101.943333	0.000000
0.243711	14.624382	131.070000	0.000000
0.309458	40.476964	104.370556	0.000000
0.346611	70.170572	99.516111	0.000000
0.360475	43.392810	111.652222	0.000000
0.391422	57.641689	103.156944	0.000000
0.391129	8.705558	105.584167	0.000000
0.427659	127.868131	116.506667	0.000000
0.473106	41.071033	105.584167	0.000000
0.574340	42.922271	140.778889	0.000000
0.597782	133.165917	152.915000	0.000000
0.599677	31.424548	135.924444	0.000000
0.585508	5.592955	174.760000	0.000000
0.462969	38.812377	180.828056	0.000000
0.439895	41.179978	188.109722	0.000000
0.425179	12.974645	196.605000	0.000000
0.405337	17.174129	219.663611	0.000000
0.409890	11.893897	259.712778	0.000000
0.404866	11.893897	259.712778	0.000000
0.416085	12.274829	299.761944	0.000000
0.443241	35.970243	259.712778	0.000000
0.463591	33.000810	294.907500	0.000000
0.558555	21.699551	339.811111	0.000000
0.574174	30.035461	328.888611	0.000000
0.610794	48.134992	333.743056	0.000000
0.620385	40.145669	364.083333	560.202248
0.655566	18.527734	398.064444	560.202248
0.651572	26.231429	415.055000	562.302480
0.645149	35.267401	504.862222	560.552395
0.642096	38.681181	601.951111	0.000000
0.647387	38.373778	628.650556	560.202248
0.667230	33.527846	649.281944	565.449891
0.696218	35.240868	667.486111	565.449891
0.698634	29.333307	718.457778	593.962166
0.740824	35.614339	719.671389	563.352009
0.745505	31.085126	792.488056	564.401146
0.785852	37.348363	760.934167	564.401146
0.778055	41.489796	593.455833	564.051477
0.809217	37.020195	848.314167	0.000000
0.818846	40.125522	856.809444	564.051477
0.834949	31.440285	828.896389	563.701765
0.886997	31.440285	828.896389	563.701765
0.899970	39.071452	963.607222	563.002209
0.931807	30.749318	1134.726389	562.302480
0.948482	28.301642	1252.446667	563.002209
0.996422	26.211815	1304.631944	563.002209
1.000670	20.284458	1541.286111	562.302480
0.998279	13.291518	1862.893056	561.952550
1.067409	25.867173	1441.770000	563.002209
1.113364	28.298105	1417.497778	563.002209
1.137328	8.047382	3051.018333	562.302480
1.142454	8.746065	2996.405833	562.302480
1.174341	5.948807	4362.931944	561.952550
1.206585	9.794981	3026.746111	561.952550
1.221021	6.647839	4608.081389	562.302480
1.215590	6.298345	5400.569444	562.302480
1.236120	5.948807	5837.469444	562.302480
1.263606	5.948807	5837.469444	562.302480
1.288727	5.598529	6324.127500	562.302480
1.317804	4.898714	7938.230278	562.302480
1.341322	4.198898	8805.962222	562.302480
1.351574	4.198898	8805.962222	562.302480
1.432394	4.549088	13744.145833	562.302480
1.426556	4.898714	11989.264167	562.302480
1.430892	4.198898	16539.092222	562.302480
1.462385	4.198898	12838.791944	562.302480
1.492786	4.198898	12838.791944	562.302480
1.516417	4.198898	21695.725833	562.302480
1.502262	4.198898	18763.641389	562.302480
1.563493	4.549088	22285.540833	562.302480
1.536998	4.198898	18717.524167	562.302480
1.555937	4.198898	34299.077222	562.302480
1.648434	4.549088	25263.742500	562.302480
1.628527	4.198898	22374.134444	562.302480
1.648345	4.198898	25393.598889	562.302480
1.646449	4.549088	18963.887222	562.302480
1.651447	4.549088	20931.150833	562.302480
1.689250	4.549088	30757.760000	562.302480
1.652362	3.849229	30260.179444	562.302480
1.699997	3.499082	36836.738056	562.302480
1.711165	4.198898	34345.194444	562.302480
1.755098	4.198898	43537.085000	562.302480
1.792849	4.549088	30972.569167	561.952550
1.790293	3.849229	42071.042778	562.302480
1.789300	4.199420	45007.981667	561.952550
1.825665	4.199420	39219.056667	561.952550
1.843753	3.849229	46807.766944	561.952550
1.832216	4.199420	38490.890000	561.952550
1.826379	3.849229	47461.903333	561.952550
1.837163	4.199420	35305.160833	561.952550
1.863544	3.849229	47046.848333	561.952550
1.867767	4.199420	41982.449167	561.952550
1.892735	4.199420	45398.764444	561.952550
1.895559	4.199420	36712.949722	561.952550
1.887800	4.199420	43281.013056	561.952550
1.892722	4.199420	40914.471389	561.952550
1.899744	4.199420	40914.471389	561.952550
1.919955	4.199420	45715.516944	561.952550
1.934927	4.199420	52219.258889	561.952550
1.925006	4.199420	54528.760833	561.952550
1.916699	4.549654	52907.376389	561.952550
1.900025	4.549654	56099.173611	561.952550
1.963226	4.549654	56099.173611	561.952550
1.954806	4.549654	54873.426389	561.952550
