power (mW)	FWHM	peak value	peak location
0.215803	91.597720	106.797778	0.000000
0.216041	115.593909	133.497222	0.000000
0.217119	56.569964	137.138056	0.000000
0.219027	126.318145	129.856389	0.000000
0.226321	28.433313	134.710833	0.000000
0.210326	17.451694	145.633333	0.000000
0.200980	118.170289	145.633333	0.000000
0.193366	73.209381	105.584167	0.000000
0.193191	139.728590	129.856389	0.000000
0.200926	110.213207	121.361111	0.000000
0.224104	91.211965	110.438611	0.000000
0.236400	103.731198	127.429167	0.000000
0.244700	67.699773	125.001944	0.000000
0.286778	104.907468	163.837500	0.000000
0.297072	39.628418	120.147500	0.000000
0.331984	3.836737	121.361111	0.000000
0.346075	96.422405	118.933889	0.000000
0.356513	26.812862	127.429167	0.000000
0.392360	128.448923	148.060556	0.000000
0.417360	13.984098	155.342222	0.000000
0.433310	27.224466	180.828056	0.000000
0.484016	18.138359	165.051111	0.000000
0.504953	34.040732	165.051111	0.000000
0.577741	26.093273	235.440556	0.000000
0.582568	22.009740	214.809167	0.000000
0.618692	17.095148	216.022778	0.000000
0.635442	13.596094	192.964167	0.000000
0.690376	3.148195	209.954722	0.000000
0.707287	26.483055	211.168333	0.000000
0.794750	21.311028	222.090833	0.000000
0.787922	31.671740	206.313889	0.000000
0.846475	24.410782	241.508611	0.000000
0.839436	25.480941	220.877222	0.000000
0.855175	13.584085	256.071944	0.000000
0.882667	36.432464	290.053056	0.000000
0.974548	15.013180	288.839444	0.000000
0.986682	18.838350	285.198611	0.000000
1.116080	19.533602	324.034167	0.000000
1.116151	21.645476	303.402778	0.000000
1.178533	21.984936	325.247778	0.000000
1.207838	19.901141	332.529444	0.000000
1.227030	17.812996	362.869722	563.701765
1.361769	8.392566	453.890556	563.352009
1.371955	9.442222	365.296944	564.750771
1.445187	12.929647	566.756389	562.652366
1.449475	12.929647	566.756389	562.652366
1.470901	9.790103	669.913333	562.652366
1.518708	15.715399	553.406667	563.002209
1.622076	4.898105	1001.229167	562.302480
1.650565	8.044379	745.157222	562.652366
1.674250	8.044379	745.157222	562.652366
1.686631	3.499082	1933.282500	562.302480
1.750585	5.248295	1197.834167	562.302480
1.873041	3.499082	2578.923611	562.302480
1.985622	3.849229	1770.658611	562.302480
1.973084	4.198898	2905.385000	562.302480
2.047712	4.198898	3474.568611	562.302480
2.117061	4.548523	1991.535833	562.302480
2.189674	3.848751	4619.003889	562.652366
2.206935	3.848751	3336.216944	562.652366
2.236698	4.198898	3103.203611	562.302480
2.425214	4.198898	4955.174167	562.302480
2.466344	3.848272	6450.343056	562.652366
2.436424	4.198898	5696.690556	562.302480
2.455781	3.849229	4768.278056	562.302480
2.525629	3.848751	8420.033889	562.302480
2.610520	3.848751	8420.033889	562.302480
2.647175	3.499082	8496.491389	562.302480
2.658281	3.499082	8496.491389	562.302480
2.642999	3.848751	9812.045833	562.302480
2.639682	3.848751	9812.045833	562.302480
2.695016	3.848751	11321.778056	562.652366
2.742422	3.848751	8366.635000	562.302480
2.850785	3.848751	8366.635000	562.302480
2.840371	3.848751	11643.385000	562.302480
2.859114	3.499082	22234.569167	562.302480
2.897632	3.148978	21170.232222	562.652366
2.960947	3.498647	19695.694722	562.652366
2.976482	3.498647	19695.694722	562.652366
3.155205	3.498647	35222.635278	562.652366
3.177085	3.848751	29707.986389	562.652366
3.273941	3.848751	33197.118333	562.302480
3.304485	3.848751	27329.308611	562.302480
3.303938	3.498647	36226.291667	562.302480
3.421878	3.848751	53000.824444	562.302480
3.402050	3.848751	39652.315833	562.302480
3.388491	3.499082	32603.662500	562.302480
3.354835	3.499082	33402.218611	562.302480
3.454784	3.499082	45868.431944	562.302480
3.463188	3.499082	43918.158889	562.302480
3.536628	3.499082	46141.494444	562.302480
3.539023	3.848751	52878.249722	562.302480
3.607031	3.848751	49191.299167	562.302480
3.559337	3.499082	44923.028889	562.302480
3.600373	3.499082	50853.946389	562.302480
3.604427	3.848751	52209.550000	562.302480
3.582258	3.848751	48315.071944	562.302480
3.599320	3.498647	54492.352500	562.652366
3.648528	3.848751	49288.388056	562.302480
3.700737	3.848751	58141.681111	562.302480
3.651301	3.499082	48929.159167	562.302480
3.674360	4.198898	53413.452222	562.302480
3.722861	3.849229	40249.412500	562.302480
3.672889	4.198898	47742.247500	562.302480
3.620755	4.198898	46065.036944	562.302480
