power (mW)	FWHM	peak value	peak location
0.218263	145.417740	104.370556	0.000000
0.218631	104.208087	106.797778	0.000000
0.214542	105.909181	117.720278	0.000000
0.217765	110.659818	126.215556	0.000000
0.222106	94.473267	127.429167	0.000000
0.239224	106.880890	111.652222	0.000000
0.249769	104.209826	129.856389	0.000000
0.273131	83.979156	106.797778	0.000000
0.274127	81.990754	134.710833	0.000000
0.264152	73.326783	116.506667	0.000000
0.264467	108.516037	106.797778	0.000000
0.270590	105.442849	129.856389	0.000000
0.278284	128.834975	106.797778	0.000000
0.287783	71.161199	116.506667	0.000000
0.310135	122.080272	101.943333	0.000000
0.327289	14.883740	110.438611	0.000000
0.388481	117.111542	133.497222	0.000000
0.403839	65.343408	105.584167	0.000000
0.442980	113.026253	141.992500	0.000000
0.485789	87.650953	101.943333	0.000000
0.498795	135.089062	103.156944	0.000000
0.512720	89.791024	103.156944	0.000000
0.581769	57.895145	111.652222	0.000000
0.602020	32.877575	121.361111	0.000000
0.613750	130.104659	116.506667	0.000000
0.647486	36.230486	114.079444	0.000000
0.759479	106.724286	110.438611	0.000000
0.771505	141.754837	144.419722	0.000000
0.838578	135.254686	116.506667	0.000000
0.884471	74.098337	122.574722	0.000000
0.906123	79.644455	122.574722	0.000000
1.021877	119.739212	99.516111	0.000000
1.028329	129.494688	145.633333	0.000000
1.122216	74.423057	122.574722	0.000000
1.109507	1.400328	139.565278	0.000000
1.108757	151.760538	131.070000	0.000000
1.195520	3.851618	845.886944	560.202248
1.258212	4.552476	530.348056	559.852058
1.287971	3.152105	555.833889	559.852058
1.352885	3.851618	455.104167	560.552395
1.467279	4.201505	657.777222	560.552395
1.487028	4.551912	1178.416389	560.552395
1.520041	3.501254	1700.269167	560.552395
1.599055	4.201505	2294.938611	560.552395
1.769211	4.201505	2294.938611	560.552395
1.802278	4.201505	2007.312778	560.552395
1.886218	3.150543	3513.404167	560.902499
1.939001	4.201505	2275.520833	560.552395
1.986820	4.201505	3427.237778	560.552395
2.028925	4.201505	3048.591111	560.552395
2.174124	3.851141	4883.571111	560.902499
2.178738	4.201505	3530.394722	560.552395
2.229364	3.851141	5350.811389	560.552395
2.232236	3.851141	4826.531389	560.552395
2.253524	3.851141	5337.461667	560.552395
2.360979	4.201505	6545.004722	560.552395
2.352901	3.851141	4973.378333	560.552395
2.569062	3.851141	6163.930833	560.552395
2.609462	3.851141	8541.395000	560.552395
2.633950	3.851141	8602.075556	560.552395
2.679026	3.851141	9072.956667	560.552395
2.692187	3.500820	11185.853611	560.902499
2.782304	3.500820	11251.388611	560.902499
2.811687	3.500820	14346.096944	560.902499
2.913364	3.851141	11888.534444	560.902499
3.105057	3.500820	14468.671667	560.902499
3.112088	3.500820	15971.122222	560.902499
3.132409	3.851141	14644.645278	560.902499
3.170113	3.150543	17071.867500	560.902499
3.208321	3.500820	14547.556389	560.902499
3.251451	3.500820	16177.436111	560.902499
3.213327	3.500820	15579.125833	560.902499
3.268611	3.851141	15348.539722	560.902499
3.379280	3.500820	16386.177222	560.902499
3.363047	3.500820	19128.938333	560.902499
3.439305	3.500820	20584.058056	560.902499
3.485992	3.500820	21636.258889	560.902499
3.559213	3.500820	20783.090278	560.902499
3.577932	3.150934	21768.542500	560.902499
3.727855	3.500820	19289.135000	560.902499
3.835390	3.500820	24942.135556	560.552395
3.814988	3.851141	23057.397500	560.552395
3.925279	3.500820	29443.419167	560.902499
3.948922	3.501254	26635.123056	560.552395
3.993465	3.150934	21217.563056	560.552395
3.964181	3.501254	20897.169722	560.552395
3.992863	3.851141	20540.368056	560.552395
4.095310	3.501254	21027.026111	560.552395
3.961960	3.150934	24984.611944	560.902499
4.010137	3.501254	19195.686944	560.552395
4.002269	3.501254	22017.332778	560.552395
4.113997	3.501254	23444.539444	560.552395
4.226814	3.851141	27580.526111	560.552395
4.164605	3.150934	26122.979167	560.902499
4.125324	3.501254	23563.473333	560.552395
4.175227	3.501254	24659.364167	560.552395
4.228912	3.501254	24483.390556	560.552395
4.158625	3.851141	19069.471389	560.552395
4.167683	3.501254	20836.489167	560.552395
4.199573	3.501254	21272.175556	560.552395
4.235529	3.501254	19945.698611	560.552395
4.248580	3.501254	23075.601667	560.552395
4.247726	3.501254	21855.922500	560.552395
4.221568	3.501254	21280.670833	560.552395
4.213577	3.501254	21451.790000	560.552395
