power (mW)	FWHM	peak value	peak location
3.435401	146.057790	179.614444	0.000000
3.407641	77.046752	169.905556	0.000000
3.496898	82.302186	184.468889	0.000000
3.761198	54.399257	157.769444	0.000000
4.182793	70.080830	160.196667	0.000000
4.201378	104.277003	150.487778	0.000000
5.163285	50.686736	177.187222	0.000000
5.752672	25.076559	186.896111	0.000000
6.284405	100.551510	189.323333	0.000000
7.213667	19.684277	211.168333	0.000000
8.708509	91.163789	274.276111	0.000000
9.847922	22.338104	300.975556	0.000000
10.008315	16.415910	310.684444	0.000000
10.797045	46.592280	356.801667	0.000000
15.306861	21.305697	441.754444	562.652366
15.651556	12.244478	468.453889	562.652366
15.708522	16.432321	584.960556	563.002209
15.939564	15.380580	577.678889	563.002209
17.569271	15.380580	575.251667	562.652366
21.609757	8.734077	570.397222	563.002209
24.270154	16.091715	609.232778	566.148836
26.306408	11.893897	813.119444	563.002209
26.894547	13.288209	956.325556	563.002209
27.070480	12.940938	1189.338889	561.952550
29.234640	14.692445	1186.911667	562.302480
33.608420	11.890937	1250.019444	562.652366
36.037117	11.192866	1368.953333	561.952550
36.826590	14.343519	1308.272778	562.302480
39.127120	14.341735	1308.272778	562.302480
42.004814	13.640444	1560.703889	562.302480
43.285728	14.343519	1701.482778	561.252560
45.779042	12.593535	2070.420556	562.652366
50.654670	12.595101	2519.456667	560.902499
53.205993	12.595101	2667.517222	560.902499
54.244511	12.595101	2849.558889	561.252560
57.398528	11.544796	3500.054444	566.148836
58.109855	12.596667	3410.247222	560.202248
60.943567	11.895376	3691.805000	560.552395
66.963711	11.895376	4140.841111	560.552395
66.884485	2.794383	4883.571111	560.202248
74.173661	4.892004	5109.302778	560.552395
73.868246	4.542859	5796.206667	559.852058
81.653270	3.143877	6177.280556	559.852058
84.512687	11.546232	6580.199444	560.202248
87.505253	4.892615	7126.324444	560.202248
88.303193	4.193146	7929.735000	559.852058
89.871936	4.542859	7466.135556	560.202248
95.461408	11.195651	7995.270000	560.202248
98.337955	4.892615	8655.474444	559.852058
97.108766	2.794383	7102.052222	559.852058
102.270127	11.896855	8475.860000	559.852058
100.029691	4.892004	9463.739444	560.202248
108.115003	12.246000	8954.022778	559.852058
113.484205	4.892004	10109.380556	559.852058
119.701191	11.895376	10034.136667	559.852058
118.734944	12.246000	10308.412778	559.852058
127.766292	12.596667	9941.902222	559.852058
127.751217	12.596667	10560.843889	559.852058
135.863246	11.895376	11988.050556	559.852058
130.968832	2.095525	11274.447222	560.202248
137.010566	12.596667	11000.171111	559.852058
143.177144	12.246000	12208.927778	559.852058
142.229826	11.895376	13196.807222	559.852058
148.937816	2.095525	13388.557778	559.852058
152.592396	2.095525	14196.822778	559.852058
153.525360	2.444932	14007.499444	559.852058
156.439421	12.246000	14272.066667	560.202248
161.561172	12.246000	15359.462222	559.852058
162.154750	12.246000	14434.690556	559.852058
156.394369	12.246000	15990.540000	559.852058
159.622682	12.596667	14441.972222	559.852058
166.113896	12.246000	14500.225556	560.202248
171.886151	10.151735	16832.786111	559.852058
166.483956	2.444932	16665.307778	560.202248
172.326469	11.895376	17597.361111	560.202248
174.801820	12.596667	16793.950556	560.202248
185.756746	2.444932	18138.631667	560.202248
180.416065	2.095525	18699.320000	560.202248
182.579935	12.246000	17415.319444	560.202248
188.098604	12.246000	18493.006111	560.202248
189.954718	12.246000	17480.854444	560.202248
191.356009	12.246000	18293.973889	560.202248
192.220474	12.246000	18361.936111	560.202248
195.542164	11.896855	19609.528333	560.202248
193.600218	12.246000	18636.212222	560.202248
191.792601	12.246000	19806.133333	560.202248
204.694784	9.799851	20740.613889	560.202248
211.094204	11.546232	21908.107778	560.202248
211.230502	12.246000	19293.989444	560.202248
205.510389	12.246000	19429.913889	560.202248
206.419919	12.246000	20238.178889	560.202248
209.192186	2.444932	21716.357222	560.202248
202.437514	10.151735	18820.681111	560.202248
206.319987	11.544796	24988.252778	560.202248
214.745314	11.195651	25279.519444	560.202248
213.225697	11.895376	23354.732222	560.202248
211.782590	11.895376	22371.707222	560.202248
206.497381	11.896855	19182.337222	560.202248
208.780705	11.895376	19988.175000	560.202248
217.324635	2.794383	23922.702222	560.202248
206.936756	10.150475	20400.802778	560.202248
