power (mW)	FWHM	peak value	peak location
0.157759	111.443219	160.196667	0.000000
0.161111	118.541206	167.478333	0.000000
0.164320	38.758670	191.750556	0.000000
0.191773	67.057430	186.896111	0.000000
0.201043	63.096995	182.041667	0.000000
0.195388	24.227642	194.177778	0.000000
0.225180	67.057430	167.478333	0.000000
0.263720	42.262003	143.206111	0.000000
0.282929	40.583325	167.478333	0.000000
0.314040	17.848562	206.313889	0.000000
0.426400	80.979109	189.323333	0.000000
0.507122	19.958273	191.750556	0.000000
0.513474	17.445122	199.032222	0.000000
0.613061	116.989864	184.468889	0.000000
0.693148	62.101355	167.478333	0.000000
0.734789	9.080599	235.440556	0.000000
0.912566	16.015143	230.586111	0.000000
0.994727	7.670089	235.440556	0.000000
1.028632	14.300526	259.712778	0.000000
1.072257	2.095263	354.374444	0.000000
1.268273	27.491862	298.548333	0.000000
1.336463	11.870157	402.918889	0.000000
1.381150	15.699637	446.608889	568.593768
1.569197	11.862712	466.026667	568.244624
1.749338	15.001880	473.308333	567.895435
1.779165	8.028311	623.796111	568.593768
1.862465	7.682624	655.350000	567.895435
2.145558	13.961378	645.641111	567.895435
2.194371	13.959626	839.818889	567.546203
2.273823	11.520314	844.673333	567.895435
2.551660	8.379993	1048.560000	567.546203
2.628289	8.729706	1106.813333	567.546203
2.660963	9.425718	1065.550556	567.546203
2.944904	9.078325	1097.104444	567.895435
3.095531	8.381043	1529.150000	567.546203
3.142481	8.381043	1415.070556	567.546203
3.537638	7.334792	1703.910000	567.546203
3.515087	6.635410	1929.641667	567.546203
3.803660	7.332955	1781.581111	567.546203
3.918839	7.683586	2084.983889	567.196927
4.173485	8.033342	2216.053889	567.546203
4.292920	6.984205	2543.728889	567.546203
4.491351	7.333874	2635.963333	567.546203
4.578476	7.333874	2565.573889	567.546203
4.647296	7.683586	2599.555000	567.196927
4.855651	7.333874	2779.169444	567.546203
5.351009	7.683586	2966.065556	567.196927
5.383050	7.683586	3094.708333	567.196927
5.571175	6.985079	3371.411667	567.196927
5.711431	6.635410	3390.829444	567.546203
5.769609	7.334792	3385.975000	567.196927
6.073259	6.985079	3720.931667	567.196927
6.302578	6.635410	3730.640556	567.546203
6.482132	6.985079	4361.718333	567.546203
6.690249	6.636241	4616.576667	567.196927
6.979587	6.286572	4677.257222	567.546203
7.115044	6.636241	5055.903889	567.196927
7.093848	6.985079	4686.966111	567.196927
7.251911	6.985079	5148.138333	567.196927
7.550989	6.636241	5237.945556	567.196927
7.694831	6.985079	5354.452222	567.196927
7.812638	6.636241	5796.206667	567.196927
8.078850	6.636241	5754.943889	567.196927
8.077595	6.286572	6400.585000	567.546203
8.415623	6.636241	6148.153889	567.196927
8.401264	6.286572	6873.893333	567.546203
8.656440	6.286572	6674.861111	567.196927
8.854981	6.636241	6776.804444	567.196927
9.143037	6.286572	6895.738333	567.546203
9.217738	6.286572	7055.935000	567.546203
9.350747	6.286572	7742.838889	567.196927
9.433029	6.636241	7036.517222	567.196927
9.786384	6.636241	7606.914444	567.196927
10.025728	6.636241	7628.759444	567.196927
10.013645	6.286572	8160.321111	567.546203
10.101640	5.937690	8711.300556	567.196927
10.252811	6.286572	8900.623889	567.546203
10.351723	6.286572	8424.888333	567.196927
10.845989	6.286572	8655.474444	567.546203
10.711573	5.937690	9393.350000	567.546203
10.916244	6.286572	8560.812778	567.546203
11.003685	6.286572	8754.990556	567.546203
11.294410	6.636241	9245.289444	567.196927
11.215581	5.937690	9529.274444	567.546203
11.215540	6.286572	9670.053333	567.546203
11.352084	6.286572	9097.228889	567.546203
11.604300	5.937690	10238.023333	567.546203
11.445489	5.937690	10264.722778	567.546203
11.596180	5.936947	10454.046111	567.546203
11.850545	6.286572	9662.771667	567.546203
12.133926	6.286572	10393.365556	567.546203
11.950378	6.286572	10274.431667	567.546203
12.191953	6.636241	9696.752778	567.196927
12.166411	5.937690	10565.698333	567.546203
12.224163	6.286572	10410.356111	567.546203
12.173417	6.286572	10162.779444	567.546203
12.274708	5.937690	10859.392222	567.546203
12.297269	5.588065	10687.059444	567.546203
12.412080	6.286572	10505.017778	567.546203
12.519602	6.286572	10725.895000	567.546203
