power (mW)	FWHM	peak value	peak location
-0.036587	107.388179	174.760000	0.000000
0.080623	105.109894	155.342222	0.000000
0.138462	79.271519	167.478333	0.000000
0.195139	15.492629	169.905556	0.000000
0.518010	11.185895	165.051111	0.000000
0.600481	78.725781	162.623889	0.000000
1.000864	44.378956	162.623889	0.000000
1.299206	35.013117	155.342222	0.000000
1.389547	107.446491	174.760000	0.000000
1.658105	63.435629	169.905556	0.000000
2.319757	45.566721	174.760000	0.000000
2.643881	64.514845	199.032222	0.000000
3.449485	48.954954	208.741111	0.000000
4.143248	18.104055	223.304444	0.000000
4.338289	19.808276	247.576667	0.000000
4.629352	115.802624	271.848889	0.000000
6.520290	22.588344	313.111667	0.000000
6.754510	12.533608	398.064444	576.611992
6.990436	14.618826	332.529444	0.000000
7.731388	20.172472	388.355556	574.174125
9.350572	21.549940	480.590000	578.004089
9.965012	25.032052	548.552222	585.994902
11.469547	24.321225	599.523889	576.611992
12.098468	26.758417	694.185556	580.438558
13.384182	25.358688	851.955000	578.004089
13.737587	29.177905	720.885000	576.960083
15.051627	23.593119	1007.297222	589.808282
15.560020	23.966134	1060.696111	585.300981
17.084159	27.411330	1135.940000	588.422223
17.628231	26.372107	1252.446667	588.768805
19.690983	23.944676	1410.216111	589.115342
20.701993	25.681410	1453.906111	589.115342
21.481808	22.550816	1844.688889	588.768805
22.258129	24.977720	1694.201111	589.808282
24.402279	22.550816	2106.828889	588.422223
25.389875	20.801460	2560.719444	591.886030
27.800150	20.445559	2456.348889	591.886030
27.469783	18.371103	3339.857778	590.847357
28.048614	20.453457	2868.976667	590.847357
31.730109	19.407217	3094.708333	591.539851
31.643659	22.539236	3572.871111	591.539851
33.329597	21.138620	3029.173333	592.924300
34.055535	21.840113	3378.693333	590.847357
35.508155	18.709287	3801.030000	593.270300
36.912505	16.967104	4099.578333	592.924300
38.484696	20.095143	2271.880000	593.270300
40.419374	18.009385	4631.140000	592.578255
42.540965	17.664194	5019.495556	592.232165
43.303414	16.274575	5548.630000	592.578255
44.140448	16.619766	5167.556111	592.924300
46.671707	17.312250	5900.577222	593.270300
46.943120	15.228886	5315.616667	594.308032
49.624736	15.228886	5844.751111	593.616255
49.610110	16.617618	6497.673889	593.616255
50.698187	15.921103	6075.337222	594.308032
54.627860	15.226915	6568.063333	594.653852
54.004209	18.004733	6822.921667	593.616255
55.418235	16.964911	7242.831111	593.962166
56.663054	16.268264	6810.785556	594.653852
57.285148	14.531022	6497.673889	594.653852
58.506251	15.222971	6614.180556	594.653852
63.498657	19.044687	7813.228333	593.962166
65.490946	13.142009	7589.923889	596.036686
65.309783	13.142009	8412.752222	595.691045
67.939707	13.486974	7466.135556	596.382283
67.629707	13.833690	8004.978889	595.691045
69.034480	12.102130	8839.943333	595.691045
69.415912	14.180450	8487.996111	596.036686
71.106614	14.527255	8092.358889	595.691045
72.174147	13.486974	9218.590000	595.345359
73.282192	13.831894	8687.028333	596.382283
74.281510	11.059776	9446.748889	596.727834
74.737248	13.831894	9403.058889	596.382283
78.525597	12.792015	10068.117778	596.727834
79.447530	16.259839	9432.185556	595.691045
80.594361	13.483472	9505.002222	596.727834
81.265608	13.828301	9308.397222	597.073340
82.303101	13.828301	9269.561667	597.073340
82.360064	13.135182	9390.922778	597.418801
81.567517	12.442242	9633.645000	597.418801
86.097343	14.866383	9206.453889	597.073340
89.112136	12.440623	9502.575000	598.109589
87.426416	15.559859	9318.106111	596.382283
85.686164	13.131766	9291.406667	598.109589
89.834630	15.211122	9150.627778	597.073340
90.883359	12.439004	9827.822778	597.764217
89.851860	12.783698	9228.298889	598.454915
90.526155	14.169400	8905.478333	598.109589
90.808438	13.824706	10546.280556	597.764217
91.959384	12.437384	9492.866111	598.454915
93.630464	12.437384	10194.333333	598.454915
93.610483	11.052577	11165.222222	598.800196
95.478014	13.131766	10238.023333	598.109589
94.777075	12.435764	8771.981111	598.454915
98.046737	10.359091	9619.081667	599.145432
97.527710	10.360442	11410.371667	598.800196
95.944809	14.167556	8934.605000	598.109589
97.378216	12.089540	9145.773333	598.454915
97.378081	11.397226	11507.460556	598.800196
95.991223	11.395739	10191.906111	599.490623
