power (mW)	FWHM	peak value	peak location
1.401133	83.916136	160.196667	0.000000
1.367076	5.525576	172.332778	0.000000
1.498334	10.023577	160.196667	0.000000
1.736545	50.989151	201.459444	0.000000
2.469024	79.349415	179.614444	0.000000
2.695494	100.108172	157.769444	0.000000
2.879824	126.136643	194.177778	0.000000
4.135169	29.884039	162.623889	0.000000
4.338525	62.254399	186.896111	0.000000
5.884450	92.620513	262.140000	0.000000
6.164498	37.364811	235.440556	0.000000
9.207428	49.335975	196.605000	0.000000
8.802248	79.668741	191.750556	0.000000
9.239355	50.491151	237.867778	0.000000
10.560734	65.397035	208.741111	0.000000
14.008672	49.335975	203.886667	0.000000
14.683070	9.738481	342.238333	0.000000
15.467204	11.472379	364.083333	0.000000
19.493150	12.166122	507.289444	579.047698
21.749333	12.516114	657.777222	580.090909
22.278182	21.893329	555.833889	580.438558
23.548167	12.167671	834.964444	581.133722
28.445743	12.859687	905.353889	580.438558
29.343646	15.291610	827.682778	581.481238
33.639226	15.628168	1012.151667	581.133722
35.242239	13.549616	1308.272778	581.481238
40.168496	13.547886	1317.981667	581.481238
43.459784	13.896153	1434.488333	581.828709
43.103274	12.848200	1536.431667	582.176136
43.905593	14.237186	1633.520556	582.870857
50.193386	14.240826	1233.028889	581.828709
52.549952	14.933588	1473.323889	582.176136
53.987821	17.354621	1330.117778	582.870857
58.292103	18.051110	1478.178333	582.870857
61.698363	14.931678	1934.496111	582.523519
63.682767	15.624172	2225.762778	583.218151
70.199376	17.700576	2220.908333	583.218151
71.549305	17.700576	2878.685556	582.870857
77.481940	22.185349	1842.261667	586.688646
79.850387	20.463976	2104.401667	585.647964
81.216433	21.154944	2264.598333	584.953954
82.913286	19.417209	2344.696667	585.647964
87.459525	20.113257	2638.390556	585.994902
90.697047	21.834491	2483.048333	585.647964
93.701883	20.798784	2737.906667	587.382210
101.641205	23.226765	2822.859444	587.382210
100.795354	21.837303	3400.538333	585.994902
106.700510	21.828866	3104.417222	589.808282
109.316665	23.214804	2927.230000	588.768805
111.701572	22.513122	3133.543889	592.578255
113.965268	22.863897	3148.107222	590.501044
121.812348	23.901606	3135.971111	593.962166
125.920237	21.122262	4194.240000	594.653852
130.230619	22.162478	3997.635000	593.962166
129.847904	21.467137	3415.101667	592.578255
133.611972	21.469911	3635.978889	592.232165
134.914450	20.774658	3718.504444	593.962166
136.906001	21.119533	4376.281667	594.999628
143.468613	21.811967	3881.128333	592.924300
147.947296	18.335543	4504.924444	595.345359
152.073567	21.111339	4359.291111	596.036686
163.088169	21.803504	4560.750556	595.691045
162.309746	22.501490	4808.327222	593.616255
158.516131	16.940745	4570.459444	598.454915
162.134949	22.148153	4126.277778	596.727834
171.417464	19.020040	4298.610556	598.109589
176.835759	20.061388	5007.359444	598.109589
177.970785	19.709110	4905.416111	599.145432
183.159077	24.578514	4517.060556	597.073340
183.577988	14.512159	6009.802222	598.454915
186.246726	17.627614	5237.945556	598.800196
190.396327	12.777034	5398.142222	599.835768
192.537334	14.162021	5441.832222	599.145432
195.495016	14.508379	5310.762222	599.145432
201.489287	16.238727	4827.745000	599.145432
203.449419	12.429277	5371.442778	600.525925
204.822700	10.699500	6852.048333	600.180869
212.000334	10.699500	7116.615556	600.180869
212.618452	17.974419	5262.217778	598.800196
215.103780	10.353679	6230.679444	600.525925
214.032666	13.121502	5808.342778	599.835768
219.032541	10.009212	5869.023333	600.180869
226.743845	10.700899	5458.822778	600.180869
228.801859	10.007903	6262.233333	600.525925
227.274839	13.121502	5667.563889	599.490623
226.593576	10.699500	6376.312778	600.525925
228.484766	9.317705	6529.227778	600.525925
226.765987	10.355033	5415.132778	599.835768
232.336227	9.660908	6296.214444	600.870935
234.192051	13.815707	4434.535000	599.490623
241.031451	10.353679	6017.083889	600.180869
237.538038	11.389788	5805.915556	600.870935
239.443476	12.429277	5643.291667	600.180869
239.067105	11.046809	5636.010000	599.835768
241.864194	10.352325	5903.004444	600.525925
244.726986	14.160174	5262.217778	599.490623
248.655468	10.352325	5970.966667	600.870935
245.336512	12.084810	4602.013333	599.835768
244.171335	11.735698	5199.110000	600.180869
243.625766	9.660908	5012.213889	600.870935
