power (mW)	FWHM	peak value	peak location
1.659965	154.494125	186.896111	0.000000
1.672343	129.125573	140.778889	0.000000
1.688210	107.807787	169.905556	0.000000
1.847081	24.237463	174.760000	0.000000
2.213105	70.767359	206.313889	0.000000
3.133875	33.042879	189.323333	0.000000
3.297595	105.857593	174.760000	0.000000
4.853409	69.700692	169.905556	0.000000
4.956879	16.017170	184.468889	0.000000
5.425241	19.838524	177.187222	0.000000
6.574702	15.033835	279.130556	0.000000
8.990976	19.132727	247.576667	0.000000
9.070188	11.157888	378.646667	0.000000
10.838724	11.865691	398.064444	571.734101
12.518544	27.100736	402.918889	0.000000
14.251935	17.412159	519.425556	573.128664
17.620056	17.416564	533.988889	573.477195
17.982123	17.761523	633.505000	572.780089
20.913155	21.227990	854.382222	573.477195
22.442578	23.987541	832.537222	574.522524
23.271808	18.455711	881.081667	574.522524
26.930845	19.137587	1155.357778	574.522524
29.811292	16.368474	1104.386111	574.522524
31.812611	16.709330	1048.560000	574.870879
33.872077	24.689103	1371.380556	574.174125
37.514573	28.490484	1082.541111	575.219189
41.199091	29.512045	1201.475000	575.567456
41.112385	28.483210	1449.051667	575.567456
42.734202	28.141251	1293.709444	576.960083
44.085257	31.591145	1446.624444	577.308129
49.175048	24.327430	788.847222	575.915679
50.731609	31.940333	1606.821111	577.308129
52.930432	29.493151	1582.548889	576.960083
55.547257	29.838206	1876.242778	578.352003
59.440127	30.190959	2101.974444	577.308129
66.556653	29.485584	2288.870556	577.656131
68.257330	29.485584	2174.791111	577.656131
70.802681	19.044687	3402.965556	579.047698
74.589631	27.742271	3213.642222	579.743217
79.419411	27.393740	3405.392778	580.438558
80.798560	26.345022	3485.491111	594.308032
84.649312	24.265190	3835.011111	593.616255
83.902775	13.831894	3791.321111	596.382283
87.570824	14.525370	3917.536667	596.036686
94.111607	11.406135	5121.438889	596.382283
94.826007	13.831894	4791.336667	596.036686
96.476596	12.097413	4652.985000	597.073340
106.043927	12.097413	5883.586667	597.073340
109.016849	14.174928	5866.596111	597.418801
115.022727	11.056898	7160.305556	597.418801
116.757816	10.364494	7213.704444	597.764217
116.129336	11.054018	6332.622778	598.454915
122.907688	10.707883	6903.020000	598.454915
124.210736	9.671009	8184.593333	598.109589
131.743331	10.709279	8456.442222	598.109589
134.986312	10.706487	8383.625556	598.800196
137.531757	9.669748	9543.837778	598.800196
139.418431	10.013135	8825.380000	599.145432
149.582210	10.359091	8429.742778	599.490623
151.083246	8.975538	10126.371111	599.835768
151.347113	10.357738	9546.265000	599.490623
153.352576	7.937307	11325.418889	600.180869
164.343766	10.011828	10978.326111	599.490623
167.047290	8.281865	10558.416667	600.525925
168.087893	10.356386	11257.456667	599.835768
171.939039	10.700899	10827.838333	599.835768
173.104054	8.626378	10832.692778	600.870935
178.396841	9.317705	11881.252778	600.525925
184.965191	8.972019	11694.356667	600.870935
187.759112	8.280782	12206.500556	600.870935
190.118724	8.970845	11832.708333	600.870935
189.709594	10.007903	10478.318333	600.870935
196.194579	8.626378	12014.750000	600.870935
200.521364	10.699500	10373.947778	600.525925
201.557344	8.279698	10546.280556	601.215900
204.873388	8.970845	12097.275556	600.870935
210.063858	8.625249	11922.515556	601.215900
212.209346	7.934192	11012.307222	601.560820
209.657987	9.663436	10623.951667	600.525925
215.044269	9.662172	9852.095000	600.870935
219.557317	8.278614	11609.403889	601.560820
218.352745	11.045366	10187.051667	600.870935
218.262826	9.660908	11393.381111	601.215900
218.914869	8.969671	11633.676111	601.215900
227.366015	9.315267	10592.397778	601.215900
231.132284	8.969671	11143.377222	601.560820
234.491844	9.316486	9939.475000	600.870935
231.088745	9.317705	10121.516667	600.525925
238.306657	8.970845	9776.851111	600.870935
234.593916	7.935230	12917.676667	600.870935
234.795781	8.626378	11954.069444	600.870935
237.149675	9.662172	10000.155556	600.870935
243.515964	9.662172	9145.773333	600.870935
242.847833	9.315267	10114.235000	601.215900
242.200447	9.662172	9048.684444	600.870935
240.438641	7.933152	10847.256111	601.560820
242.390508	8.969671	10005.010000	601.215900
243.433076	9.662172	7992.842778	600.870935
240.276428	10.007903	8002.551667	600.870935
238.585495	7.934192	10689.486667	601.215900
246.448629	9.663436	7126.324444	600.525925
