power (mW)	FWHM	peak value	peak location
0.069014	120.766064	856.809444	541.582722
0.078710	72.298946	837.391667	540.525187
0.076035	59.902466	832.537222	540.877741
0.099612	64.402604	805.837778	543.696641
0.143544	142.348393	815.546667	545.105066
0.185347	87.127312	919.917222	537.703224
0.225059	131.741114	885.936111	540.172591
0.253978	25.059124	871.372778	540.172591
0.302327	136.175850	803.410556	540.172591
0.348180	138.115722	764.575000	546.160937
0.420788	127.042038	786.420000	539.819951
0.495309	108.743804	815.546667	539.114546
0.543102	154.846806	876.227222	554.594002
0.627724	91.307555	783.992778	549.326236
0.713692	110.361237	791.274444	541.935148
0.812113	68.768665	854.382222	540.877741
0.876165	123.531001	871.372778	539.819951
0.966587	105.010229	958.752778	538.761779
1.093461	158.086243	934.480556	545.809023
1.215837	112.721682	966.034444	541.582722
1.287575	76.676387	1026.715000	541.230253
1.423732	65.491250	1060.696111	541.582722
1.431759	63.472778	1138.367222	544.048811
1.567316	63.697203	1123.803889	542.992172
1.727813	47.704891	1279.146111	546.160937
1.869269	28.116079	1298.563889	541.935148
1.979686	23.271475	1417.497778	543.696641
2.105608	21.184785	1451.478889	545.105066
2.272436	32.235744	1279.146111	540.172591
2.412985	16.681745	1507.305000	542.287532
2.582669	20.495447	1432.061111	542.992172
2.629113	12.862964	1708.764444	538.761779
2.764463	14.948837	1677.210556	540.172591
3.028995	14.251731	1771.872222	545.105066
3.094977	13.906786	1946.632222	545.105066
3.251166	14.950740	1830.125556	542.639873
3.524047	12.864601	1888.378889	542.639873
3.605669	12.512926	1997.603889	543.696641
3.772874	12.169221	2245.180556	541.230253
3.961700	12.169221	2298.579444	542.639873
4.024629	12.169221	2407.804444	543.696641
4.390043	12.169221	2250.035000	544.753024
4.527225	12.517707	2526.738333	540.172591
4.810341	11.820778	2546.156111	540.525187
4.911015	11.126857	2961.211111	539.114546
5.063315	11.473839	2861.695000	544.400939
5.234025	11.822282	2832.568333	554.243119
5.474376	13.213132	2592.273333	543.344427
5.589084	11.822282	2973.347222	546.160937
5.807828	12.170769	2905.385000	546.864636
5.820477	13.214813	2815.577778	539.114546
6.115715	13.561707	2696.643889	543.344427
6.396408	12.517707	2946.647778	543.344427
6.410844	11.822282	3310.731111	539.819951
6.676300	12.864601	3199.078889	538.408970
6.935329	12.519300	3310.731111	550.731920
6.997943	12.170769	3286.458889	540.525187
7.107617	12.517707	3376.266111	542.287532
7.510172	13.561707	3196.651667	541.582722
7.490346	11.126857	3616.561111	539.114546
7.447250	13.213132	3361.702778	539.114546
7.787407	13.908556	3250.050556	542.992172
8.341545	13.559981	3293.740556	544.400939
8.066755	11.822282	4342.300556	540.525187
8.352152	12.517707	3585.007222	542.639873
8.577367	13.559981	3752.485556	541.230253
8.602203	13.211450	3606.852222	542.287532
8.746041	14.603980	3356.848333	541.230253
8.899441	12.516114	3534.035556	548.623136
9.122204	17.725474	2043.721111	541.582722
9.203886	13.213132	3684.523333	548.974707
9.441863	13.558255	3531.608333	541.230253
9.648241	12.862964	3684.523333	543.344427
9.696806	13.559981	3759.767222	543.696641
9.997766	14.253546	3618.988333	553.541223
10.094783	14.253546	3762.194444	542.287532
10.074295	13.905015	4017.052778	546.512808
10.114947	15.988716	3376.266111	540.172591
10.244822	14.598402	3548.598889	541.230253
10.414144	153.600827	924.771667	541.582722
10.409575	146.747257	873.800000	542.639873
10.879863	53.550130	876.227222	539.467270
10.838867	129.960072	944.189444	540.525187
11.217258	133.125115	1225.747222	546.512808
11.114410	141.920114	1182.057222	544.753024
11.070005	137.358101	1245.165000	539.819951
11.256590	106.491779	1279.146111	540.525187
11.331684	157.421960	1138.367222	541.582722
11.377062	132.547882	1128.658333	548.271522
11.129062	146.859344	951.471111	545.105066
11.445013	15.978520	4395.699444	539.467270
11.367033	22.928537	65535.000000	539.467270
11.615773	21.887743	65535.000000	686.333239
11.546652	24.315016	65535.000000	540.877741
12.082826	150.880092	1208.756667	546.160937
11.850214	91.793289	864.091111	539.114546
11.609577	38.655145	708.748889	542.287532
11.841948	55.462639	871.372778	543.696641
11.836874	111.003871	881.081667	547.919865
11.972288	96.097114	842.246111	545.457066
