power (mW)	FWHM	peak value	peak location
51.706815	8.388381	3097.135556	565.100353
52.017416	8.737351	2864.122222	544.048811
51.927078	7.340293	3216.069444	540.525187
52.028550	8.039367	3211.215000	540.525187
52.031605	8.039367	3189.370000	546.864636
52.571148	7.340293	3313.158333	539.467270
52.090394	7.340293	3429.665000	543.344427
51.434827	6.991192	3424.810556	542.639873
51.395446	6.991192	3444.228333	538.408970
51.891315	6.642047	3563.162222	538.761779
51.488853	5.943626	4186.958333	542.992172
51.941411	6.991192	3868.992222	541.230253
51.974347	7.341209	3611.706667	542.639873
51.584379	6.642047	4043.752222	541.935148
51.750597	6.992064	3650.542222	541.230253
51.527424	6.292858	3922.391111	564.750771
52.509513	6.292858	4308.319444	547.568165
52.649309	6.292858	4002.489444	544.753024
52.130208	6.992064	3871.419444	539.467270
52.037216	5.943626	4133.559444	541.935148
51.371767	6.992064	4206.376111	541.230253
51.070307	6.642875	4356.863889	540.525187
51.711537	6.642875	4347.155000	540.172591
51.487340	6.992064	4118.996111	564.401146
51.275431	6.992064	4118.996111	564.401146
51.186928	5.943626	4245.211667	545.809023
50.995378	6.643703	4570.459444	539.467270
51.665744	6.293643	4565.605000	539.467270
51.526995	6.293643	4565.605000	539.467270
51.503670	6.992936	4208.803333	540.172591
50.993236	6.643703	4279.192778	542.287532
50.882255	6.643703	4390.845000	542.992172
51.126638	5.944367	4446.671111	540.877741
49.947700	6.643703	4330.164444	542.639873
51.390715	7.343040	4509.778889	543.696641
50.636069	6.643703	4385.990556	547.919865
49.715531	6.643703	4478.225000	564.051477
49.568992	5.944367	4759.782778	541.230253
51.084217	6.294427	4565.605000	542.992172
50.701858	6.643703	4286.474444	564.051477
50.645852	6.294427	4487.933889	539.819951
50.242888	6.993807	4424.826111	542.992172
50.102780	6.992936	4118.996111	540.877741
50.351722	6.993807	4672.402778	541.935148
50.304248	6.993807	4672.402778	541.935148
50.302590	6.643703	4410.262778	544.753024
50.954339	6.294427	4422.398889	543.344427
50.335079	6.993807	4242.784444	563.701765
50.466834	6.644531	4648.130556	540.172591
50.122919	6.644531	4648.130556	540.172591
50.192028	7.693187	4293.756111	544.400939
50.591375	6.644531	4259.775000	546.864636
49.899006	7.343040	4233.075556	542.287532
49.485215	7.343040	4233.075556	542.287532
51.198099	7.693187	4138.413889	539.467270
52.097719	6.993807	4080.160556	563.701765
50.929436	6.993807	4165.113333	539.467270
49.592229	6.993807	4165.113333	539.467270
50.363941	6.644531	4293.756111	541.935148
49.571153	6.993807	4075.306111	545.105066
50.056684	6.644531	4201.521667	539.467270
50.647827	7.693187	3902.973333	540.877741
51.682540	6.993807	4291.328889	541.582722
50.832224	5.945108	4606.867778	544.753024
51.120077	7.343954	4225.793889	541.935148
51.108175	7.343954	4121.423333	540.877741
50.709485	6.295211	4293.756111	547.216422
50.662630	6.295211	4582.595556	538.761779
49.584443	6.993807	4009.771111	543.344427
49.642581	7.343954	4143.268333	538.761779
49.829893	8.042375	3791.321111	539.114546
50.633168	6.644531	4186.958333	540.877741
