power (mW)	FWHM	peak value	peak location
48.993602	70.765515	1017.006111	539.467270
49.268804	147.218694	975.743333	541.935148
49.581239	157.421960	963.607222	543.696641
49.883937	143.016692	895.645000	541.582722
49.929074	134.627546	970.888889	539.114546
49.848189	48.345733	1029.142222	542.639873
49.204221	62.469807	1021.860556	542.992172
49.348301	130.381091	898.072222	544.753024
49.278564	139.077366	1004.870000	539.467270
50.340132	91.632936	966.034444	544.400939
49.946038	150.373983	949.043889	540.877741
49.228827	50.860031	985.452222	546.864636
48.303860	50.860031	985.452222	546.864636
48.073377	122.113518	922.344444	542.287532
48.058103	28.590427	980.597778	537.350288
47.873710	119.635159	1004.870000	541.230253
47.731325	86.649414	983.025000	540.877741
47.112233	83.827758	970.888889	549.326236
46.973336	144.333566	1077.686667	543.344427
47.840723	145.552461	966.034444	542.992172
49.186070	145.552461	966.034444	542.992172
48.861708	57.540996	917.490000	546.160937
48.876698	57.540996	917.490000	546.160937
48.857448	1.663290	1019.433333	542.287532
48.822775	113.663870	1004.870000	547.919865
48.883534	32.831671	910.208333	540.877741
48.029269	83.302732	975.743333	555.997101
46.938416	143.114641	973.316111	539.114546
47.023860	97.432504	987.879444	545.457066
47.451560	128.301112	1014.578889	539.114546
47.344407	7.326518	985.452222	545.809023
47.974633	137.664857	1024.287778	538.761779
48.323213	144.095075	963.607222	542.639873
49.258880	135.655925	1024.287778	540.525187
48.921411	135.594117	958.752778	539.114546
48.719794	113.867978	963.607222	538.761779
49.003661	76.617326	961.180000	539.114546
48.519080	76.617326	961.180000	539.114546
48.349597	47.543969	997.588333	540.172591
48.185079	9.166949	1038.851111	539.467270
48.095817	128.114167	983.025000	552.839156
48.329630	72.392483	893.217778	540.172591
47.336929	72.392483	893.217778	540.172591
48.369775	53.821106	973.316111	542.639873
49.321316	107.545245	970.888889	542.639873
49.005197	90.236292	1007.297222	540.877741
49.133259	139.079525	936.907778	540.877741
48.758248	139.079525	936.907778	540.877741
48.643299	97.204504	995.161111	544.400939
48.288452	144.128893	968.461667	541.230253
48.152134	39.477160	963.607222	543.344427
48.246286	77.910764	936.907778	544.400939
48.423484	127.983364	946.616667	539.114546
47.293408	63.240232	939.335000	540.877741
47.575170	130.230648	888.363333	539.114546
47.128890	129.418451	990.306667	539.819951
48.658564	53.795117	1002.442778	547.216422
47.788727	63.352671	992.733889	540.877741
48.368694	63.352671	992.733889	540.877741
50.251442	101.754134	968.461667	541.230253
48.094266	31.985209	973.316111	545.809023
48.826765	124.498347	983.025000	538.761779
49.457606	31.627483	868.945556	544.400939
45.634583	138.449112	939.335000	545.457066
46.679960	139.878134	946.616667	542.639873
48.365225	117.515577	1002.442778	540.172591
47.350940	117.515577	1002.442778	540.172591
46.955487	127.043257	997.588333	539.819951
47.098678	127.043257	997.588333	539.819951
46.137818	122.338081	968.461667	542.287532
49.020592	52.351636	927.198889	544.400939
48.260479	52.351636	927.198889	544.400939
48.722662	127.983364	890.790556	540.525187
47.969124	113.939358	961.180000	544.753024
49.263011	145.064241	995.161111	539.114546
48.030308	80.077783	1019.433333	541.935148
48.154574	97.546864	1029.142222	541.582722
48.305071	97.546864	1029.142222	541.582722
