power (mW)	FWHM	peak value	peak location
50.145807	92.153491	1048.560000	539.114546
49.882848	59.436565	985.452222	543.696641
49.261777	103.923463	900.499444	539.819951
50.968044	121.446096	939.335000	540.877741
50.519034	88.039299	992.733889	544.400939
51.281252	125.983269	990.306667	549.677721
52.716923	145.808052	975.743333	539.114546
51.650037	131.172581	966.034444	542.287532
52.648704	108.138173	946.616667	544.753024
53.026332	115.251143	968.461667	545.809023
52.757948	39.619570	956.325556	545.105066
51.838825	59.766876	932.053333	541.582722
51.451465	116.037316	970.888889	540.877741
50.853905	87.471085	915.062778	542.992172
50.558271	52.079516	963.607222	548.271522
49.518952	149.196638	888.363333	541.582722
49.982355	80.493315	932.053333	549.677721
49.005761	158.065120	983.025000	541.230253
49.345880	160.194672	946.616667	547.568165
48.944731	146.356791	997.588333	542.992172
48.737009	118.535754	956.325556	540.877741
50.672698	53.609656	953.898333	538.761779
51.412676	149.728775	983.025000	542.287532
51.748636	95.725352	963.607222	542.639873
51.223873	56.556797	995.161111	539.114546
50.914166	44.969252	958.752778	540.877741
51.232278	140.497848	932.053333	539.467270
50.711203	28.882152	1000.015556	541.230253
50.525572	28.790760	983.025000	541.230253
50.619924	36.192151	956.325556	540.877741
52.130949	36.192151	956.325556	540.877741
53.466670	21.607156	941.762222	539.114546
53.475201	71.485661	866.518333	546.864636
53.602820	149.339337	985.452222	539.114546
53.096381	60.134639	1000.015556	543.344427
52.013895	60.134639	1000.015556	543.344427
51.609287	88.480998	944.189444	538.761779
51.546386	40.801448	900.499444	544.753024
51.948703	37.810155	941.762222	541.230253
52.161361	91.610470	975.743333	540.172591
52.138772	60.715477	898.072222	541.935148
52.668680	149.649102	1026.715000	539.467270
52.308785	143.226036	939.335000	540.877741
51.894104	90.979285	1050.987222	544.400939
52.561089	90.979285	1050.987222	544.400939
51.637208	68.920345	949.043889	544.048811
51.034768	118.918029	941.762222	541.582722
49.843634	118.918029	941.762222	541.582722
49.605179	27.312874	978.170556	542.992172
49.943412	56.378272	1002.442778	540.525187
50.359825	58.046971	970.888889	546.160937
50.835260	156.858634	1007.297222	542.639873
52.088858	45.997913	917.490000	539.114546
49.562608	109.983377	958.752778	550.731920
50.619906	109.983377	958.752778	550.731920
51.300172	145.066040	924.771667	540.525187
51.138718	155.964279	936.907778	539.819951
51.661460	30.822790	944.189444	540.525187
50.036693	118.779211	915.062778	538.761779
51.134736	118.779211	915.062778	538.761779
51.793200	138.810926	922.344444	544.400939
51.719011	100.585766	1000.015556	546.512808
51.524411	77.851299	951.471111	542.287532
52.102124	138.559302	951.471111	539.819951
50.887014	141.284835	890.790556	539.114546
50.773439	112.589082	985.452222	544.400939
51.552970	112.589082	985.452222	544.400939
51.675676	63.836314	941.762222	539.467270
49.975468	39.835395	946.616667	541.935148
50.079892	39.835395	946.616667	541.935148
49.390164	138.110415	1019.433333	539.467270
49.188049	48.297677	927.198889	541.935148
50.734994	141.551401	922.344444	544.048811
50.498699	36.333840	1012.151667	544.048811
51.038419	134.278285	932.053333	543.344427
50.687650	134.278285	932.053333	543.344427
50.718188	40.240988	958.752778	545.457066
49.232161	103.998351	958.752778	539.114546
