power (mW)	FWHM	peak value	peak location
49.080602	83.804375	927.198889	539.819951
49.059354	76.655556	958.752778	541.582722
48.731649	93.068564	944.189444	545.105066
49.366774	71.401998	1007.297222	538.408970
48.766029	94.426930	1038.851111	542.992172
50.075278	102.339947	868.945556	545.105066
50.818496	122.415899	1002.442778	541.582722
50.947447	102.538784	953.898333	547.919865
51.142816	85.920318	915.062778	538.761779
50.866562	83.485811	956.325556	540.525187
51.224483	118.598405	944.189444	539.819951
50.392947	116.122415	1017.006111	542.287532
50.855442	116.122415	1017.006111	542.287532
49.946029	84.396320	951.471111	545.105066
50.205817	123.954298	956.325556	539.467270
50.468803	123.954298	956.325556	539.467270
50.712554	86.259658	1043.705556	539.467270
51.826914	86.259658	1043.705556	539.467270
51.064831	155.821506	978.170556	539.467270
50.513828	150.375115	941.762222	543.696641
50.115148	150.375115	941.762222	543.696641
49.862205	114.168020	1024.287778	542.992172
49.793087	101.609061	997.588333	539.114546
49.723503	96.391953	932.053333	544.753024
49.599707	104.627655	922.344444	541.935148
49.828645	89.297680	951.471111	543.344427
50.394451	81.694768	958.752778	538.761779
50.054090	89.943143	997.588333	538.761779
50.290674	84.148769	968.461667	539.467270
49.607921	84.148769	968.461667	539.467270
49.974420	139.218045	949.043889	539.467270
49.496954	46.129466	975.743333	539.467270
49.983859	55.949585	1000.015556	542.639873
50.970055	126.218046	985.452222	542.992172
50.058835	143.597309	973.316111	548.623136
49.673449	159.264825	975.743333	547.568165
49.039698	118.886161	963.607222	539.114546
49.677556	142.215585	961.180000	538.761779
50.408668	70.093724	1019.433333	539.467270
50.757579	111.826937	985.452222	541.230253
50.786110	111.826937	985.452222	541.230253
50.807358	46.231531	987.879444	547.919865
50.642961	120.501146	978.170556	541.935148
49.859788	112.297091	978.170556	542.639873
49.920222	100.720716	973.316111	541.230253
49.345726	62.149334	927.198889	541.230253
48.387488	62.691111	1029.142222	539.819951
49.171420	108.927966	973.316111	538.761779
50.393254	59.707975	893.217778	540.877741
49.449839	135.162530	1021.860556	539.467270
50.110733	83.924485	1046.132778	545.105066
51.076435	141.825901	966.034444	546.864636
50.533353	141.825901	966.034444	546.864636
49.562780	130.703718	859.236667	542.639873
50.098193	119.142670	1000.015556	542.287532
51.251343	75.426401	1012.151667	544.048811
51.525449	137.450946	953.898333	538.408970
50.831130	120.433019	915.062778	539.114546
49.595581	102.761356	966.034444	540.877741
49.172025	102.761356	966.034444	540.877741
49.522766	141.957755	1000.015556	542.639873
49.973684	33.154693	980.597778	545.457066
49.837981	155.988596	1004.870000	543.696641
50.612870	34.820077	987.879444	544.400939
49.805166	56.498451	1007.297222	553.190211
49.695391	24.650932	917.490000	548.623136
50.720195	145.746454	987.879444	540.172591
49.826666	129.521737	970.888889	541.935148
50.512459	85.575758	944.189444	540.172591
49.169585	120.017874	995.161111	541.230253
48.886132	142.112949	995.161111	540.525187
48.915283	152.705440	922.344444	546.512808
50.082477	132.444058	946.616667	547.216422
48.902147	132.444058	946.616667	547.216422
49.969680	88.888300	941.762222	546.160937
48.512015	56.507546	949.043889	546.160937
48.997561	9.863747	963.607222	541.582722
49.168677	688.663907	978.170556	540.525187
48.674135	22.721970	961.180000	540.172591
48.594610	147.650063	973.316111	544.048811
48.291781	66.721838	966.034444	544.048811
48.815482	129.739612	922.344444	540.877741
48.715812	129.739612	922.344444	540.877741
49.310909	56.920767	953.898333	543.696641
49.467366	135.491946	956.325556	541.230253
49.531502	109.900731	992.733889	557.048972
48.618875	109.900731	992.733889	557.048972
48.871790	128.117787	956.325556	543.344427
49.392427	98.395738	1004.870000	538.761779
48.229336	80.321324	992.733889	546.864636
48.620235	119.906451	936.907778	541.230253
48.511727	78.616255	946.616667	541.582722
49.339170	45.039728	929.626111	541.230253
48.844791	126.848544	980.597778	539.467270
49.234903	97.740550	958.752778	542.639873
49.647158	82.513230	929.626111	548.974707
49.224081	82.513230	929.626111	548.974707
49.105324	46.857023	927.198889	546.864636
49.079829	46.251557	951.471111	545.105066
48.864628	62.592966	968.461667	553.892193
48.342617	78.361184	922.344444	542.992172
