power (mW)	FWHM	peak value	peak location
51.348563	48.122881	1339.826667	539.114546
51.552653	39.343277	1395.652778	543.344427
51.450697	67.674264	1393.225556	545.457066
51.857475	36.931863	1371.380556	544.753024
52.303472	60.224011	1303.418333	565.100353
52.009169	63.080343	1322.836111	543.344427
52.383142	54.203070	1342.253889	541.230253
52.671148	60.796342	1339.826667	542.992172
52.866479	68.481935	1320.408889	540.525187
52.202558	56.943510	1322.836111	540.525187
52.161808	56.943510	1322.836111	540.525187
51.920204	53.965341	1334.972222	543.344427
51.425914	46.271059	1368.953333	547.216422
52.112336	52.758303	1334.972222	542.639873
52.629928	42.197691	1429.633889	565.100353
53.281672	50.944421	1332.545000	540.172591
53.067538	28.964128	1390.798333	541.230253
52.864067	66.145426	1322.836111	539.819951
52.246968	52.214746	1383.516667	545.457066
52.629155	38.982773	1402.934444	539.819951
51.977723	44.523167	1405.361667	545.809023
52.318405	44.523167	1405.361667	545.809023
50.863810	67.691273	1402.934444	540.525187
51.352242	35.538262	1385.943889	541.230253
51.323706	35.538262	1385.943889	541.230253
52.089621	33.122414	1429.633889	542.287532
51.836260	42.192380	1385.943889	539.114546
51.695043	50.381419	1378.662222	540.877741
51.624235	46.082785	1349.535556	540.877741
51.139016	43.827533	1451.478889	551.434504
51.043304	49.276944	1354.390000	541.582722
51.422887	49.276944	1354.390000	541.582722
52.460204	34.872223	1385.943889	539.114546
51.567592	44.714403	1330.117778	565.100353
52.184407	50.969994	1376.235000	543.344427
52.483371	86.168760	1390.798333	542.639873
51.883408	27.894448	1439.342778	539.819951
52.236160	48.195423	1381.089444	564.750771
51.452857	64.121880	1364.098889	541.582722
51.001171	45.418702	1393.225556	543.344427
51.839571	45.418702	1393.225556	543.344427
50.750379	40.059851	1417.497778	548.974707
50.431858	31.787624	1429.633889	543.696641
51.137158	39.759123	1398.080000	540.172591
51.793810	49.386272	1356.817222	548.271522
51.282798	51.257865	1354.390000	538.761779
51.737027	39.333310	1407.788889	541.582722
51.890747	34.153275	1449.051667	539.467270
52.640773	35.542749	1461.187778	549.326236
51.894537	37.969864	1483.032778	545.105066
51.304949	30.687682	1417.497778	541.230253
51.698419	30.687682	1417.497778	541.230253
51.302332	31.069555	1446.624444	546.160937
50.754840	46.300411	1393.225556	546.160937
51.752618	59.758045	1422.352222	547.216422
51.831938	45.435724	1439.342778	544.048811
50.612572	57.620504	1376.235000	540.525187
50.698197	54.833901	1395.652778	544.753024
51.163733	55.702472	1439.342778	540.172591
51.257769	48.195423	1415.070556	542.992172
50.862138	28.580985	1483.032778	540.172591
50.080316	44.856722	1405.361667	545.457066
50.724475	27.193677	1473.323889	540.877741
52.192309	42.176434	1378.662222	547.919865
52.312291	39.724063	1354.390000	541.230253
51.506259	61.715778	1388.371111	543.344427
52.344492	45.885232	1434.488333	539.467270
52.257515	45.885232	1434.488333	539.467270
51.752757	27.203950	1485.460000	547.216422
51.630321	57.453915	1371.380556	540.877741
52.927248	35.983746	1419.925000	543.344427
53.618536	35.983746	1419.925000	543.344427
51.951013	33.490018	1395.652778	548.271522
51.590782	41.034543	1473.323889	540.172591
51.734606	27.585590	1427.206667	539.114546
51.352559	27.585590	1427.206667	539.114546
52.116630	33.460514	1395.652778	538.761779
52.466020	40.689397	1444.197222	542.287532
51.934514	42.803094	1398.080000	540.172591
51.579047	36.276186	1400.507222	540.172591
52.809413	56.876841	1427.206667	539.114546
52.092029	56.876841	1427.206667	539.114546
51.956675	41.384907	1388.371111	564.750771
51.494190	54.682360	1390.798333	539.467270
52.960385	46.276933	1376.235000	539.819951
