power (mW)	FWHM	peak value	peak location
49.482025	4.528612	4762.210000	543.344427
49.411827	5.922778	4361.718333	544.400939
49.038325	4.877275	4970.951111	545.105066
48.367488	5.922778	4366.572778	539.114546
48.818211	5.225321	4315.601111	542.287532
48.792721	4.179993	5051.049444	541.582722
48.819277	7.666221	3995.207778	540.525187
49.089757	5.922778	4213.657778	538.761779
48.414809	5.922778	4167.540556	541.582722
48.018252	5.574732	4250.066111	538.761779
48.005902	5.225981	4536.478333	538.761779
48.971758	6.620411	3983.071667	540.525187
48.685120	5.225981	4684.538889	543.344427
49.733710	5.225981	4684.538889	543.344427
49.110986	4.529184	4694.247778	539.114546
48.612007	4.877275	4366.572778	545.105066
49.412297	6.620411	4116.568889	540.877741
49.584922	14.305920	3781.612222	543.696641
49.998225	13.256652	3868.992222	564.051477
49.471147	7.666221	3614.133889	540.877741
49.226987	8.714360	3558.307778	540.525187
49.998076	8.714360	3558.307778	540.525187
49.860384	6.620411	3917.536667	540.877741
49.101040	4.877275	4652.985000	544.753024
49.250927	4.877275	4356.863889	538.761779
48.933784	5.574732	4196.667222	538.761779
48.772870	4.529184	4381.136111	541.230253
48.537212	5.225981	4140.841111	547.216422
48.898500	6.271572	3953.945000	542.287532
48.376075	6.271572	3946.663333	564.401146
48.476155	5.225981	4104.432778	564.051477
49.194754	12.557358	3781.612222	544.400939
49.170926	8.015191	3441.801111	541.230253
49.162400	8.015191	3495.200000	542.287532
49.081668	12.207776	3665.105556	538.761779
48.629399	12.207776	3665.105556	538.761779
48.827082	6.969293	3864.137778	541.230253
48.947032	9.760696	3390.829444	542.992172
49.216114	7.666221	3376.266111	539.467270
49.233534	6.271572	3621.415556	539.467270
48.441528	14.305920	3674.814444	541.582722
48.733954	8.015191	3208.787778	545.809023
48.763705	12.206240	3298.595000	544.753024
49.630986	12.206240	3298.595000	544.753024
49.292920	8.016202	3422.383333	542.639873
49.410886	7.318219	3402.965556	540.877741
48.942943	9.411508	3373.838889	544.400939
49.409955	7.317295	3412.674444	545.105066
48.555527	7.666221	3220.923889	539.467270
47.991094	16.751530	3068.008889	539.467270
47.685090	16.053555	3099.562778	540.172591
48.329490	17.449504	1934.496111	541.582722
48.593683	17.449504	1934.496111	541.582722
49.955933	13.254985	3308.303889	542.639873
49.771415	14.652080	3235.487222	542.639873
49.022436	13.604654	3169.952222	545.457066
48.955609	12.555778	3186.942778	544.048811
48.863245	10.459205	3177.233889	538.761779
49.036164	12.206240	3201.506111	542.992172
49.274270	16.751530	2910.239444	544.048811
48.965053	12.905360	3267.041111	539.114546
49.291849	10.108654	3041.309444	541.582722
49.701990	15.703581	3063.154444	541.935148
48.553571	9.062363	2919.948333	542.287532
49.869255	9.062363	2919.948333	542.287532
49.944795	16.751530	2866.549444	541.230253
49.620145	10.808524	3031.600556	544.753024
50.004949	18.149755	2677.226111	538.761779
49.427990	14.653922	2978.201667	542.287532
48.921071	12.203167	2791.305556	546.512808
48.872726	12.203167	2791.305556	546.512808
49.495883	17.799608	2665.090000	539.467270
49.847718	12.905360	3058.300000	544.400939
49.677249	10.805800	2733.052222	545.457066
50.204401	18.497624	2657.808333	538.761779
49.617873	17.101590	2769.460556	540.172591
50.690118	15.003765	2873.831111	539.819951
50.587244	17.101590	2750.042778	542.287532
50.705229	17.799608	2621.400000	539.819951
50.944868	18.149755	2648.099444	565.100353
51.043006	16.747323	2577.710000	544.048811
49.929386	17.799608	2628.681667	542.639873
49.911235	17.799608	2628.681667	542.639873
50.133173	17.449504	2466.057778	541.230253
50.312807	17.449504	2466.057778	541.230253
50.481157	15.701609	2767.033333	539.819951
49.952753	8.015191	2902.957778	539.819951
49.076015	18.149755	2376.250556	545.457066
49.165580	17.799608	2524.311111	546.512808
48.690448	17.449504	2490.330000	543.344427
49.789888	12.552618	2769.460556	565.100353
48.885853	17.801841	2492.757222	543.344427
