power (mW)	FWHM	peak value	peak location
52.973679	35.388117	970.888889	541.935148
53.605726	126.694184	1021.860556	543.344427
54.056575	62.038846	944.189444	542.287532
53.442260	32.357542	985.452222	540.172591
53.250557	98.990088	963.607222	543.344427
54.502869	34.303192	1002.442778	541.935148
53.692847	138.687579	995.161111	539.819951
53.080986	138.061718	980.597778	544.753024
54.053837	118.815310	973.316111	547.919865
53.613475	103.279815	934.480556	546.512808
53.842128	16.084618	1017.006111	542.992172
54.124696	129.407149	915.062778	547.568165
53.490619	133.378411	1019.433333	541.582722
53.254194	96.617219	997.588333	541.935148
52.663195	62.830582	946.616667	541.230253
52.805147	131.248993	985.452222	541.582722
52.592363	18.202767	1063.123333	538.761779
52.779503	118.469889	1021.860556	546.512808
52.739508	121.841148	1007.297222	540.877741
53.650429	85.552052	951.471111	539.114546
53.151934	85.552052	951.471111	539.114546
53.907442	36.131356	1033.996667	540.525187
54.316940	82.723968	922.344444	539.467270
54.069576	109.829213	956.325556	543.344427
53.969757	49.546734	941.762222	548.271522
54.416666	141.736112	995.161111	540.877741
54.033687	28.402873	987.879444	543.696641
53.296019	59.086953	1024.287778	543.344427
52.954275	89.272257	1058.268889	540.877741
52.491170	135.019828	1019.433333	538.056118
52.815522	128.554935	1075.259444	550.029164
53.804298	78.372658	1019.433333	539.819951
53.401622	157.853503	990.306667	548.271522
53.611980	152.874713	985.452222	542.639873
53.849621	152.874713	985.452222	542.639873
53.425441	146.432929	990.306667	538.761779
53.620827	14.129602	1021.860556	539.819951
53.992802	127.327108	1048.560000	539.114546
53.973850	81.831640	927.198889	544.048811
53.879847	159.532069	1017.006111	540.172591
53.169178	41.487577	1021.860556	545.105066
52.960557	41.487577	1021.860556	545.105066
53.811600	66.457687	968.461667	539.114546
54.267086	66.457687	968.461667	539.114546
54.520154	117.150278	973.316111	539.819951
53.659743	63.448806	973.316111	544.048811
52.457154	107.684567	1002.442778	542.287532
53.344886	101.163940	1004.870000	540.172591
52.007497	120.353645	956.325556	544.048811
53.237425	60.766910	953.898333	540.525187
53.049969	61.826603	983.025000	542.639873
53.378437	67.958837	956.325556	542.992172
53.211297	67.958837	956.325556	542.992172
53.567123	143.980587	958.752778	550.029164
53.488817	97.450636	985.452222	545.809023
52.986499	47.543969	1038.851111	543.696641
52.608103	140.894338	963.607222	543.344427
53.280760	121.356464	924.771667	544.753024
52.455147	92.902730	985.452222	538.761779
52.753408	132.054548	975.743333	541.230253
53.162458	132.054548	975.743333	541.230253
52.985563	127.278133	973.316111	540.172591
53.761704	56.497363	985.452222	541.935148
53.180340	66.335042	995.161111	542.639873
52.894284	66.335042	995.161111	542.639873
53.840298	125.447695	1004.870000	540.172591
53.620213	138.780300	1041.278333	542.639873
53.814966	135.493608	961.180000	543.696641
53.028455	28.149695	949.043889	548.271522
53.815455	28.149695	949.043889	548.271522
53.294664	132.771248	932.053333	541.230253
52.745026	127.404490	995.161111	538.761779
53.032129	94.942451	1033.996667	545.105066
53.091971	46.038613	949.043889	543.344427
52.897343	46.768724	1000.015556	539.467270
52.982834	116.809927	978.170556	542.639873
53.075165	63.312498	968.461667	539.114546
53.539630	100.389598	997.588333	540.172591
52.836300	92.802667	1012.151667	565.799385
