power (mW)	FWHM	peak value	peak location
47.605247	13.611491	4213.657778	539.467270
47.917068	11.163505	4458.807222	572.431471
47.751940	15.707523	3703.941111	540.877741
48.078704	14.309512	3876.273889	572.780089
48.270891	13.611491	4058.315556	547.919865
48.034750	12.212380	4169.967778	544.048811
48.578270	13.959626	3919.963889	538.761779
49.507045	14.659442	3689.377778	543.344427
48.955576	16.757834	3402.965556	539.467270
48.078876	15.357506	3655.396667	544.048811
48.181568	15.357506	3655.396667	544.048811
48.445645	13.959626	3958.799444	540.525187
48.090778	13.259983	3720.931667	547.919865
47.932803	17.105881	3133.543889	541.582722
48.610945	16.755734	3094.708333	572.431471
48.243399	15.357506	3325.294444	539.467270
47.429716	15.357506	3325.294444	539.467270
47.621569	15.007533	3434.519444	543.696641
47.674836	13.959626	3456.364444	543.344427
48.224018	15.007533	3286.458889	546.512808
48.821862	12.210846	3614.133889	572.780089
49.467199	15.707523	3206.360556	572.431471
49.573444	14.309512	3308.303889	539.114546
49.952599	14.309512	3308.303889	539.114546
48.974515	15.707523	3026.746111	545.809023
48.251026	15.355579	3036.455000	547.568165
47.863792	13.259983	3301.022222	540.877741
47.990191	14.307716	3252.477778	540.877741
47.531351	15.705552	3233.060000	543.696641
47.427746	14.307716	3233.060000	545.809023
48.002559	16.405630	2973.347222	572.082808
48.095621	16.753632	2985.483333	547.216422
48.269052	14.655763	3036.455000	572.431471
47.746580	17.103736	2936.938889	547.216422
48.340163	17.103736	2825.286667	538.761779
48.530665	14.653922	3046.163889	544.753024
48.336480	14.655763	2878.685556	540.877741
48.336955	14.305920	3046.163889	572.431471
48.099477	16.751530	2754.897222	539.114546
47.928365	17.801841	2587.418889	539.819951
47.993255	16.405630	2847.131667	544.048811
48.309648	16.751530	2686.935000	542.639873
48.583774	14.304122	2839.850000	543.344427
48.128618	14.655763	2934.511667	538.761779
47.740485	16.751530	2691.789444	545.809023
47.260113	13.957873	2992.765000	571.734101
47.587235	15.705552	2801.014444	546.160937
47.789151	17.103736	2604.409444	542.639873
48.235310	14.307716	2842.277222	544.400939
48.478446	16.751530	2650.526667	539.819951
48.883702	15.353651	2740.333889	539.114546
48.543322	14.655763	2801.014444	546.512808
48.233927	13.609783	2973.347222	544.753024
46.949685	16.751530	2526.738333	540.877741
47.171921	16.751530	2526.738333	540.877741
48.313746	15.703581	2699.071111	541.935148
49.111117	13.956120	2725.770556	541.230253
48.112115	17.449504	2458.776111	544.753024
48.274063	17.449504	2458.776111	544.753024
48.041767	17.097296	2492.757222	541.582722
48.312098	18.147477	2344.696667	543.696641
48.545767	17.449504	2446.640000	540.877741
47.961329	17.449504	2446.640000	540.877741
48.714140	15.705552	2691.789444	545.457066
47.528609	15.355579	2628.681667	540.525187
48.398911	16.751530	2553.437778	542.992172
49.487674	15.701609	2599.555000	544.048811
49.089114	14.653922	2631.108889	539.819951
49.848189	14.653922	2631.108889	539.819951
48.951604	15.351723	2628.681667	540.172591
48.744353	17.101590	2390.813889	548.271522
48.653204	16.053555	2446.640000	542.639873
48.656571	16.053555	2446.640000	542.639873
48.609721	15.703581	2373.823333	572.082808
48.936508	18.147477	2415.086111	539.114546
47.920439	16.049523	2543.728889	540.172591
49.571763	14.305920	2560.719444	539.819951
48.983530	16.401513	2373.823333	543.696641
48.390385	15.701609	2519.456667	543.344427
48.842188	16.051539	2395.668333	540.525187
48.326729	14.655763	2587.418889	545.105066
47.816639	16.397393	2407.804444	541.230253
47.601727	16.397393	2407.804444	541.230253
46.940525	17.445122	2250.035000	539.467270
48.019644	17.445122	2250.035000	539.467270
48.150457	17.799608	2201.490556	539.114546
48.132734	17.799608	2201.490556	539.114546
