power (mW)	FWHM	peak value	peak location
52.287141	111.311542	1230.601667	538.761779
52.394737	73.375918	1257.301111	542.639873
52.044112	84.703454	1220.892778	540.877741
53.051184	57.577173	1267.010000	539.467270
52.855229	67.363530	1235.456111	540.877741
52.709905	67.363530	1235.456111	540.877741
52.640163	77.963657	1296.136667	545.809023
52.713118	62.877810	1342.253889	538.761779
53.146891	54.564472	1279.146111	543.344427
53.039603	128.301112	1271.864444	541.230253
51.715188	74.965942	1410.216111	539.819951
51.969020	66.765290	1313.127222	545.105066
52.319020	56.771934	1271.864444	541.582722
52.139657	80.994123	1320.408889	541.582722
52.320254	46.645557	1388.371111	539.114546
52.151587	42.846475	1322.836111	544.400939
52.508134	46.909479	1313.127222	540.877741
52.145021	72.502452	1305.845556	548.271522
52.189878	102.330641	1381.089444	542.992172
52.623050	35.249719	1432.061111	539.114546
52.041677	53.275817	1337.399444	539.467270
52.680001	62.880544	1378.662222	538.761779
51.953774	52.619347	1361.671667	538.761779
52.232929	43.966165	1356.817222	539.114546
52.183350	64.826766	1354.390000	538.761779
52.742418	34.543054	1412.643333	543.696641
53.316928	53.104348	1383.516667	539.114546
52.755531	44.896621	1349.535556	543.344427
51.486245	34.499589	1388.371111	538.761779
51.711989	34.499589	1388.371111	538.761779
52.248957	75.308124	1359.244444	541.230253
52.852919	55.822057	1405.361667	540.525187
52.604582	58.561268	1383.516667	545.457066
51.547186	54.556134	1422.352222	540.877741
51.555526	40.568178	1381.089444	541.582722
52.873525	76.891913	1368.953333	539.114546
52.544768	39.719047	1400.507222	542.639873
52.808048	39.719047	1400.507222	542.639873
52.824668	60.383293	1449.051667	539.467270
52.582324	32.086573	1485.460000	539.114546
52.831247	45.902756	1444.197222	541.230253
52.443100	47.262457	1422.352222	542.992172
52.443244	62.446275	1327.690556	540.525187
53.497166	45.557927	1463.615000	541.935148
52.681663	39.432671	1395.652778	548.271522
53.035002	133.755129	1422.352222	541.230253
52.396096	108.652279	1468.469444	565.100353
52.317185	108.652279	1468.469444	565.100353
51.950268	36.627285	1497.596111	540.172591
51.659145	32.404682	1492.741667	565.100353
52.494081	44.936424	1366.526111	565.100353
51.588514	39.368164	1407.788889	543.344427
52.663791	26.867008	1485.460000	542.992172
51.816106	27.557910	1512.159444	543.344427
50.971429	60.789716	1405.361667	541.582722
50.250366	27.904982	1517.013889	542.287532
50.512915	48.721664	1432.061111	541.230253
49.638310	41.065825	1466.042222	541.230253
50.714710	44.395577	1407.788889	543.344427
50.778510	35.587539	1424.779444	538.408970
51.026219	49.988331	1446.624444	539.467270
50.689960	37.254343	1449.051667	540.525187
51.352391	38.335136	1436.915556	545.809023
51.614032	27.217632	1502.450556	542.992172
52.894158	78.335313	1436.915556	538.761779
51.574935	47.550410	1441.770000	539.467270
50.260001	27.908490	1422.352222	539.467270
51.546395	25.452130	1541.286111	541.230253
52.876445	79.725332	1405.361667	545.457066
51.839459	54.261826	1449.051667	548.974707
52.181492	26.873756	1509.732222	548.623136
52.192169	39.477160	1475.751111	540.172591
51.833182	33.557187	1451.478889	544.048811
51.093511	41.793568	1451.478889	543.344427
51.984591	32.086573	1449.051667	565.100353
52.073440	26.172465	1495.168889	543.344427
51.636151	37.657146	1436.915556	547.568165
51.212558	39.698968	1446.624444	539.114546
50.658686	31.735819	1485.460000	540.877741
51.068352	23.377847	1543.713333	543.344427
49.960674	45.961040	1400.507222	541.582722
53.078514	67.270402	1449.051667	539.114546
53.054094	75.836065	1410.216111	538.761779
52.614352	58.326165	1480.605556	541.230253
51.479377	36.221327	1478.178333	540.172591
51.497845	32.058279	1497.596111	564.750771
51.025292	32.058279	1497.596111	564.750771
51.284772	34.503942	1519.441111	546.512808
52.196132	33.794117	1434.488333	538.761779
52.747615	58.238393	1410.216111	539.819951
