power (mW)	FWHM	peak value	peak location
0.609052	83.454916	157.769444	0.000000
0.516627	50.881362	220.877222	0.000000
0.168561	98.141241	182.041667	0.000000
0.198857	97.350372	184.468889	0.000000
0.316114	102.424706	172.332778	0.000000
0.425550	68.279277	199.032222	0.000000
0.646307	2.443401	186.896111	0.000000
0.787251	20.712136	189.323333	0.000000
1.061111	27.289150	220.877222	0.000000
1.300372	110.582367	211.168333	0.000000
1.492104	11.879075	242.722222	0.000000
1.893254	22.402307	276.703333	0.000000
2.374279	35.663328	245.149444	0.000000
2.910147	34.708768	266.994444	0.000000
3.187009	30.009113	296.121111	0.000000
3.871180	7.345783	308.257222	0.000000
4.437716	13.311328	366.510556	0.000000
4.849296	15.386333	337.383889	0.000000
5.530181	10.151735	390.782778	0.000000
6.111214	17.830804	424.763889	0.000000
6.730741	18.506903	398.064444	564.051477
7.598951	32.142956	376.219444	565.100353
8.319633	14.707047	412.627778	562.302480
9.002605	25.821884	419.909444	565.100353
9.968899	18.548499	436.900000	564.401146
10.224885	17.475733	475.735556	564.401146
11.180825	13.642142	504.862222	563.352009
11.528743	24.456754	473.308333	563.701765
12.637023	23.380783	541.270556	564.401146
13.257750	30.009113	550.979444	563.701765
14.644244	27.602852	643.213889	563.701765
14.845721	22.346507	623.796111	564.750771
16.749747	18.170217	577.678889	563.352009
18.092499	22.714127	754.866111	563.701765
17.974811	11.191473	987.879444	562.302480
19.160573	23.760971	718.457778	563.701765
20.416796	16.776709	842.246111	562.652366
21.846772	8.047382	1599.539444	561.952550
23.203572	6.998160	1910.223889	561.952550
23.460854	6.648665	2856.840556	562.302480
25.240912	7.348524	2269.452778	561.952550
25.805810	5.599225	5347.170556	561.952550
27.060602	6.299127	4754.928333	561.952550
28.682866	6.299127	3754.912778	561.602576
29.268577	5.949546	5594.747222	561.602576
30.174519	5.599225	8604.502778	561.952550
31.588965	5.249600	12432.232222	561.602576
33.778219	4.899931	9820.541111	561.602576
33.182517	5.599920	10303.558333	561.602576
35.376574	5.249600	11900.670556	561.602576
37.582883	5.599920	9937.047778	561.602576
37.629344	5.599920	13534.191111	561.602576
38.376586	5.599920	13893.420000	561.602576
41.326995	6.299910	8565.667222	561.602576
42.164343	4.899931	17779.402778	561.602576
41.482225	5.949546	13840.021111	561.602576
43.682047	5.949546	13371.567222	561.602576
40.559759	6.299127	10051.127222	561.602576
48.044870	7.697975	5395.715000	561.952550
47.088063	5.249600	14194.395556	561.602576
51.310743	6.648665	8500.132222	561.952550
49.959030	7.697975	7786.528889	561.952550
49.982571	9.095341	4640.848889	562.652366
53.419850	10.144169	3728.213333	562.302480
50.703330	11.191473	3475.782222	562.652366
57.410512	10.842415	3512.190556	562.652366
55.403465	10.142907	3839.865556	562.302480
58.068310	11.191473	3368.984444	562.652366
56.728382	12.587264	3063.154444	562.652366
55.926213	15.380580	2412.658889	563.002209
56.007699	15.031961	2322.851667	563.002209
59.455028	12.239907	2509.747778	562.652366
61.000498	13.633647	2844.704444	562.652366
65.062242	15.031961	2305.861111	562.652366
66.096852	14.681467	2412.658889	563.002209
63.527820	12.590401	2451.494444	562.302480
61.831128	14.683298	2466.057778	562.652366
64.839503	12.939326	2424.795000	562.302480
67.997042	15.729155	2194.208889	562.652366
68.281917	18.523110	1796.144444	563.352009
72.061025	18.174755	1861.679444	563.352009
67.247400	13.635347	2449.067222	562.302480
68.686496	20.264224	1706.337222	563.701765
70.071021	11.890937	2167.509444	562.302480
72.091157	10.145431	2555.865000	562.302480
70.952798	9.096472	3097.135556	562.302480
75.011116	10.493314	2728.197778	562.302480
73.534242	12.937715	2395.668333	562.302480
79.314631	12.588833	2378.677778	562.302480
72.046539	8.396745	3660.251111	562.302480
73.815247	13.984098	2004.885556	562.302480
76.542719	12.588833	2169.936667	562.302480
76.187732	11.540486	2473.339444	562.302480
76.255211	6.998160	4157.831667	561.952550
77.733093	8.047382	3946.663333	561.952550
77.605349	5.948807	5320.471111	561.952550
80.839570	7.697975	3902.973333	561.952550
78.494881	7.348524	4737.937778	561.952550
79.283889	5.948807	5774.361667	562.302480
79.640526	6.648665	5143.283889	561.952550
