power (mW)	FWHM	peak value	peak location
0.104191	50.453912	196.605000	0.000000
0.156024	131.264749	160.196667	0.000000
0.273685	143.481830	194.177778	0.000000
0.047113	15.368578	169.905556	0.000000
0.327093	19.110818	199.032222	0.000000
0.523104	43.290049	189.323333	0.000000
0.593087	103.057033	182.041667	0.000000
0.823883	24.798375	250.003889	0.000000
1.138656	61.325662	206.313889	0.000000
1.437065	45.459156	203.886667	0.000000
1.753959	18.937083	235.440556	0.000000
2.054717	68.781256	271.848889	0.000000
2.314174	17.191072	254.858333	0.000000
2.870143	17.112311	313.111667	0.000000
3.300234	18.876133	330.102222	0.000000
3.796384	20.243933	291.266667	0.000000
4.418904	15.756566	349.520000	0.000000
5.181658	9.792543	356.801667	0.000000
5.165435	7.697975	359.228889	0.000000
5.880440	31.404846	410.200556	564.051477
6.962696	17.833026	393.210000	0.000000
7.545624	19.224487	458.745000	562.652366
8.173615	32.050182	429.618333	564.051477
8.926951	23.392517	451.463333	561.602576
10.100395	32.118825	478.162778	563.701765
11.228578	23.439290	504.862222	564.051477
11.461811	23.070769	529.134444	563.701765
12.314316	37.685572	560.688333	564.051477
12.733870	26.843356	623.796111	564.401146
13.494709	37.685572	592.242222	564.401146
14.710472	23.036158	655.350000	564.051477
15.877534	25.496908	711.176111	564.401146
16.465930	27.950500	694.185556	564.401146
18.383681	30.710835	657.777222	566.148836
19.155944	25.480941	720.885000	564.051477
18.644763	23.749088	851.955000	563.352009
20.731719	19.923552	980.597778	563.002209
22.387054	7.697018	2218.481111	562.302480
22.432485	6.648665	3254.905000	561.952550
23.080817	5.948807	3432.092222	561.952550
25.269292	6.648665	3487.918333	561.952550
25.613998	5.249600	6706.415000	561.952550
27.907511	5.249600	10439.482778	561.602576
28.297227	4.899931	10055.981667	561.602576
29.742434	5.599920	10189.478889	561.602576
30.108402	4.899931	14648.286111	561.602576
32.652563	5.599920	22211.510556	561.602576
31.349480	5.250252	21432.372222	561.602576
34.181661	5.250252	21517.325000	561.252560
33.676510	4.900539	30473.775000	561.252560
37.523190	5.250252	25670.302222	561.252560
36.633159	5.600616	26041.667222	561.252560
37.043470	5.250252	34386.457222	561.252560
38.347266	5.600616	21247.903333	561.252560
42.055810	5.600616	25085.341667	561.252560
40.608716	5.250252	35702.011667	561.252560
43.114681	5.950284	20267.305556	561.252560
45.011341	5.950284	19560.983889	561.252560
44.528674	5.950284	17182.306111	561.252560
46.551240	5.950284	15883.742222	561.252560
48.848178	6.999899	9975.883333	561.602576
47.501858	6.299910	11347.263889	561.602576
50.492665	7.348524	7611.768889	561.602576
49.683286	6.999029	8653.047222	561.602576
50.903645	8.048382	6500.101111	561.952550
55.044521	6.299127	11284.156111	561.952550
52.359645	7.697975	6318.059444	561.952550
59.506754	9.096472	4771.918889	561.952550
58.457984	6.999029	7762.256667	561.952550
56.816540	9.445748	4883.571111	561.952550
56.959892	10.144169	4203.948889	561.952550
60.536272	9.794981	4597.158889	561.952550
61.261328	9.096472	4514.633333	561.952550
59.606952	10.493314	3973.362778	561.952550
62.689308	5.949546	6136.017778	561.602576
64.431588	8.047382	5167.556111	561.952550
62.256692	10.493314	3771.903333	561.952550
64.270414	12.937715	3026.746111	561.952550
63.720739	19.214885	2417.513333	562.652366
67.344774	9.445748	3555.880556	561.952550
65.527954	9.096472	3597.143333	561.952550
71.001057	11.541923	3097.135556	561.952550
67.972760	8.048382	4983.087222	561.602576
68.417001	16.075678	2313.142778	561.952550
66.964925	18.864348	2325.278889	562.652366
71.931639	22.697087	1876.242778	562.652366
68.845951	12.239907	2546.156111	561.952550
73.383130	17.821906	2378.677778	561.952550
71.938090	16.075678	2337.415000	562.652366
76.157041	15.030086	2611.691111	562.302480
70.001854	12.590401	2543.728889	562.302480
73.496946	18.167947	2029.157778	562.302480
77.116997	19.916089	2046.148333	563.002209
74.936729	13.633647	2618.972778	562.302480
74.833327	21.303031	1779.153889	563.701765
73.850366	16.774615	2252.462222	562.652366
74.517990	17.123014	2070.420556	562.652366
74.655055	14.683298	2274.307222	562.302480
73.887230	14.334592	2271.880000	562.302480
77.590566	15.030086	2065.566111	562.652366
