power (mW)	FWHM	peak value	peak location
0.684779	81.333455	167.478333	0.000000
0.639792	144.769838	165.051111	0.000000
0.417194	24.081728	179.614444	0.000000
0.426513	39.468594	189.323333	0.000000
0.602296	15.750703	223.304444	0.000000
0.833890	30.822068	167.478333	0.000000
1.247454	39.749114	169.905556	0.000000
1.472927	14.295127	240.295000	0.000000
1.748099	13.977118	245.149444	0.000000
1.967063	25.477744	240.295000	0.000000
2.269032	27.960976	252.431111	0.000000
2.802782	42.403871	330.102222	0.000000
3.108280	20.944618	305.830000	0.000000
3.549460	14.366658	315.538889	0.000000
4.191401	22.366081	320.393333	0.000000
4.530935	13.312975	320.393333	0.000000
5.375692	29.340652	286.412222	0.000000
5.558817	5.947328	373.792222	0.000000
6.353159	20.264224	366.510556	0.000000
7.025216	33.159907	395.637222	564.401146
7.520248	24.135956	378.646667	563.701765
8.180123	39.412854	383.501111	565.100353
8.947074	23.728255	434.472778	564.401146
9.497455	11.899811	519.425556	564.401146
10.199961	42.878933	432.045556	564.401146
11.789801	21.998726	470.881111	563.701765
12.023883	44.856722	507.289444	563.352009
12.575249	19.543422	592.242222	563.701765
13.856671	20.625188	580.106111	564.401146
14.407354	26.533071	558.261111	569.291927
14.591424	24.432265	601.951111	565.449891
17.250234	29.344322	572.824444	565.449891
17.317282	16.071662	1109.240556	562.302480
18.366492	12.582555	1058.268889	562.302480
19.955921	20.957739	873.800000	563.002209
20.297026	5.248948	2487.902778	561.952550
20.376902	8.746065	1378.662222	562.302480
21.784863	11.190079	1262.155556	562.302480
24.202923	11.190079	1451.478889	561.952550
23.655341	5.248948	3728.213333	561.952550
25.022665	7.348524	2196.636111	561.952550
27.476463	5.949546	3650.542222	561.952550
27.749148	5.599225	7412.736667	561.952550
29.704919	5.249600	8597.221111	561.602576
30.061901	4.549654	11822.999444	561.952550
31.568701	5.249600	10415.210556	561.602576
31.431711	5.599920	11160.367778	561.602576
32.748197	5.950284	11475.906667	561.252560
33.798693	5.599920	12043.876667	561.602576
36.154019	5.599920	12670.100000	561.602576
36.214127	5.599920	17058.517778	561.602576
39.939760	5.599920	14667.703889	561.602576
37.737220	5.599920	16946.865556	561.602576
40.486828	5.599920	15005.087778	561.602576
41.666144	5.599920	14034.198889	561.602576
43.059090	6.299910	8801.107778	561.602576
45.383451	5.599920	13014.765556	561.602576
45.135317	6.299910	10250.159444	561.602576
46.258390	5.599920	10381.229444	561.602576
48.689629	4.899931	14245.367222	561.602576
51.237770	6.299127	9412.767778	561.602576
49.790465	7.349437	6148.153889	561.602576
54.244998	6.999029	5900.577222	561.602576
52.899435	6.999029	6674.861111	561.602576
55.679298	7.348524	4869.007778	561.952550
53.865158	8.397789	4228.221111	561.952550
55.777633	8.747152	4097.151111	561.952550
58.530381	11.541923	2898.103333	561.952550
59.932945	7.348524	4939.397222	561.602576
58.468207	8.749326	3750.058333	561.952550
60.659825	12.939326	2703.925556	561.952550
60.029455	9.446923	3293.740556	561.602576
64.334121	11.541923	2716.061667	561.952550
64.542445	16.081697	2133.528333	562.302480
65.883651	17.125152	2007.312778	562.302480
62.992030	12.939326	2364.114444	561.952550
65.632795	17.123014	2123.819444	562.302480
68.384807	10.494620	2771.887778	561.952550
66.140493	15.033835	2432.076667	562.302480
68.391711	11.541923	2723.343333	561.952550
67.909362	15.378661	1968.477222	562.302480
69.956955	8.397789	3390.829444	561.952550
71.325890	8.396745	2992.765000	561.952550
70.667339	8.397789	3548.598889	561.952550
69.734983	12.590401	1995.176667	562.302480
73.088646	7.698931	4048.606667	561.952550
72.919916	6.649491	4672.402778	561.602576
72.625525	8.747152	3111.698889	561.952550
76.982489	7.348524	3395.683889	561.952550
74.528826	9.097603	3126.262222	561.952550
76.882456	8.747152	2818.005000	561.952550
78.959568	6.649491	4296.183333	561.602576
76.695311	6.649491	6179.707778	561.602576
79.583732	6.999029	3902.973333	561.952550
79.667653	6.999029	4570.459444	561.952550
81.998618	6.999029	3793.748333	561.952550
75.692895	6.999029	4051.033889	561.952550
78.245252	6.999029	3585.007222	561.952550
78.168715	7.348524	3441.801111	561.952550
78.731174	6.648665	3779.185000	561.952550
