power (mW)	FWHM	peak value	peak location
-0.446174	71.235727	4354.436667	542.287532
-0.366787	98.623031	4242.784444	541.582722
-0.224561	107.548234	4203.948889	542.639873
-0.067748	79.265985	4131.132222	542.639873
0.066882	84.466202	4288.901667	541.582722
0.249053	87.130560	4189.385556	542.639873
0.543026	84.842990	4303.465000	571.385351
0.872717	143.914076	4364.145556	542.992172
1.275998	58.465083	4359.291111	572.431471
1.619335	58.413113	4276.765556	541.230253
2.095155	124.213764	4201.521667	542.639873
2.408054	73.887188	4305.892222	542.992172
3.023526	105.465160	4128.705000	542.992172
3.396229	81.983030	4194.240000	543.344427
4.132147	54.234227	4271.911111	540.525187
4.607947	45.224544	4160.258889	542.992172
5.348797	51.426992	4203.948889	606.384947
5.981786	58.368468	4085.015000	543.344427
6.924352	36.913193	4291.328889	538.408970
7.646403	45.569509	4196.667222	569.291927
8.413223	51.804138	4237.930000	541.230253
9.288014	42.139164	4325.310000	570.338836
10.057270	44.211796	4128.705000	570.338836
10.834209	47.662576	4218.512222	542.287532
11.518244	40.049721	4330.164444	570.687718
12.521610	40.049721	4330.164444	570.687718
13.126380	41.421700	4220.939444	570.687718
14.272962	38.310930	4242.784444	541.230253
15.378616	41.076239	4208.803333	569.640940
16.019074	40.725572	4109.287222	569.640940
18.010511	41.421700	4286.474444	627.982774
18.405988	38.992653	4337.446111	568.942870
19.850116	35.187638	4245.211667	570.687718
20.974060	34.148965	4242.784444	568.942870
22.889221	37.604880	4213.657778	569.291927
24.093271	34.845858	4230.648333	569.291927
24.742949	36.225908	4419.971667	568.942870
26.158955	34.499589	4519.487778	568.942870
27.049824	33.452071	4570.459444	569.291927
28.279847	34.148965	4660.266667	569.989910
29.071503	36.922532	4424.826111	569.291927
30.806271	35.538262	4842.308333	569.291927
32.000739	32.412862	5019.495556	568.593768
31.828965	32.416950	5094.739444	568.942870
33.957079	32.412862	5182.119444	568.942870
34.649892	33.105713	5274.353889	568.244624
36.164835	33.105713	5485.522222	568.593768
37.675736	32.416950	5441.832222	568.593768
39.101028	31.373251	5662.709444	568.244624
40.142526	33.105713	5835.042222	568.244624
41.629327	31.719832	5975.821111	567.895435
43.441664	32.408773	5944.267222	568.244624
45.518746	33.456293	5927.276667	568.593768
45.764937	30.676087	6199.125556	568.593768
46.093809	32.759310	6339.904444	567.546203
48.295552	29.982701	6456.411111	568.244624
49.853524	33.109890	6315.632222	568.593768
51.728810	31.377205	6521.946111	568.244624
53.188573	29.292824	6818.067222	567.895435
52.870992	29.635941	6801.076667	568.244624
54.560513	29.986478	6854.475556	567.895435
57.451283	29.982701	7021.953889	567.895435
57.196456	32.408773	6640.880000	567.895435
58.498204	29.292824	7055.935000	567.895435
59.794398	29.635941	7199.141111	568.244624
62.513538	29.635941	7359.337778	568.244624
63.837120	31.026624	7140.887778	567.895435
63.245845	28.942287	7313.220556	567.895435
62.433342	28.945930	7468.562778	567.895435
64.389238	29.986478	7536.525000	567.895435
67.070300	29.292824	7679.731111	568.244624
69.377969	28.595393	7546.233889	568.244624
67.303584	28.595393	7492.835000	567.895435
68.032382	28.942287	8012.260556	567.546203
69.830368	29.639673	8087.504444	567.196927
70.639772	29.986478	7801.092222	567.546203
71.690418	29.292824	7667.595000	567.895435
73.635655	29.289136	8140.903333	567.895435
71.745273	29.639673	8274.400556	567.546203
73.838302	28.942287	7888.472222	567.895435
75.051985	27.901472	8089.931667	567.895435
76.553268	27.901472	8143.330556	567.546203
75.731520	28.252009	8162.748333	567.546203
76.712414	27.901472	8240.419444	567.895435
78.275885	28.595393	7699.148889	567.895435
79.530850	27.901472	8291.391111	567.895435
80.100506	29.635941	8136.048889	567.895435
80.033468	27.901472	8165.175556	567.895435
78.808160	28.252009	8136.048889	567.895435
80.162524	27.901472	8080.222778	567.546203
83.367950	28.945930	8123.912778	567.895435
81.533922	27.901472	8305.954444	567.895435
78.742359	28.248454	8687.028333	567.196927
81.360061	28.252009	8308.381667	567.196927
81.759615	28.248454	8259.837222	567.546203
81.689131	28.252009	8361.780556	567.546203
81.262475	29.643404	8529.258889	567.196927
80.588155	27.554444	8412.752222	567.895435
83.960516	28.942287	8305.954444	567.895435
82.974246	29.639673	8291.391111	567.546203
82.024593	28.598992	8332.653889	567.895435
83.200650	27.901472	8417.606667	567.895435
85.085351	29.292824	8148.185000	567.895435
83.173337	28.942287	8199.156667	567.895435
85.157833	27.901472	8155.466667	567.546203
