power (mW)	FWHM	peak value	peak location
-0.454344	50.113804	845.158778	540.172591
-0.445133	69.301612	839.333444	544.048811
-0.334353	23.141403	833.508111	538.761779
-0.117181	137.221149	823.799222	542.639873
-0.081016	136.108874	835.935333	544.400939
0.285111	152.030118	871.858222	541.582722
0.305302	152.030118	871.858222	541.582722
0.392408	141.085760	853.896778	545.105066
1.128446	77.923448	827.682778	545.105066
1.374429	118.452286	832.051778	540.525187
1.964527	9.719162	820.886556	553.892193
2.149459	131.316973	934.966000	539.467270
2.672072	155.656430	892.246889	538.056118
3.478650	147.608134	940.305889	543.344427
3.506731	119.127134	914.577333	540.172591
4.495868	156.316578	913.121000	539.114546
4.848448	129.579848	944.674889	541.230253
5.364956	86.819161	883.508889	542.639873
5.761716	109.195580	906.324778	544.400939
6.607793	157.832303	920.888111	544.048811
7.618739	92.715458	899.043111	541.582722
8.534417	140.342328	918.460889	542.639873
9.734587	153.851384	917.490000	541.230253
10.179386	135.296039	935.451444	540.172591
11.124353	93.421712	889.819667	569.291927
11.522853	125.627249	929.626111	571.385351
12.907588	121.935932	924.771667	540.525187
13.249487	119.871693	945.160333	540.877741
14.119108	148.003042	930.597000	570.687718
16.088207	134.631264	906.324778	569.989910
16.727600	152.067367	951.956556	541.935148
18.149595	140.397078	895.645000	540.172591
19.116196	147.413942	937.878667	540.877741
20.293299	112.077334	916.519111	539.114546
20.489926	144.146901	909.237444	540.877741
20.911299	151.403183	928.655222	540.525187
21.933993	155.282681	904.383000	569.640940
24.056077	133.484341	947.102111	545.105066
25.070141	134.627546	932.538778	538.408970
26.474540	143.474984	948.558444	544.400939
27.731491	158.409936	967.490778	539.819951
29.967234	130.621764	961.180000	568.244624
30.312414	130.587451	975.257889	539.819951
31.186090	109.039019	963.607222	540.877741
31.960652	161.959142	977.199667	567.895435
33.244956	155.718828	986.423111	567.895435
34.538756	159.157904	999.530111	539.467270
35.230750	149.748677	1023.316889	569.291927
36.540657	140.973899	1030.598556	569.291927
39.353095	123.986951	1024.287778	538.761779
40.337177	140.676794	1042.249222	569.291927
41.133102	145.315626	972.830667	544.048811
42.706334	146.121648	1030.598556	539.114546
42.933420	135.337349	1042.734667	543.344427
42.760156	149.042423	1067.977778	542.287532
44.806208	122.658356	1079.143000	569.291927
44.970642	136.461428	1089.337333	537.703224
47.873397	113.473160	1111.182333	568.244624
50.569372	131.843400	1099.046222	568.244624
53.067048	141.844756	1112.638667	568.244624
53.964576	149.589278	1120.891222	567.895435
54.268018	108.404813	1140.794444	541.230253
55.534342	132.370140	1128.658333	567.895435
57.476856	114.120400	1152.930556	568.942870
57.674868	142.386069	1145.163444	541.582722
57.245232	106.666827	1166.523000	567.196927
57.921791	95.017609	1183.999000	567.895435
59.621442	147.880839	1193.707889	568.244624
60.411699	106.666827	1180.600889	567.546203
62.059590	114.677498	1178.173667	567.546203
64.629261	99.484234	1200.018667	568.942870
65.253002	127.966612	1185.940778	567.895435
65.544506	112.649815	1187.397111	568.593768
65.239388	116.472052	1192.251556	567.546203
65.581835	141.913315	1226.718111	567.546203
67.625610	121.296741	1212.154778	567.546203
66.606230	163.349560	1221.863667	568.244624
68.279534	146.765685	1239.339667	540.525187
68.632289	89.653916	1237.883333	567.196927
74.408847	70.495382	1243.708667	568.942870
73.842476	70.495382	1243.708667	568.942870
74.659161	147.002466	1214.582000	567.895435
74.315554	136.036654	1259.242889	539.819951
74.322954	92.303296	1300.020222	568.244624
73.093286	70.233210	1266.039111	567.196927
75.213374	75.659952	1295.165778	567.895435
76.791746	87.607138	1250.019444	567.546203
77.708184	75.881987	1266.524556	540.525187
78.556466	79.261430	1257.786556	567.196927
78.031742	75.119168	1263.126444	567.546203
79.370434	73.929656	1283.029667	567.546203
80.342185	98.332275	1285.456889	539.467270
79.656223	91.737667	1273.320778	568.244624
78.573230	120.960249	1290.311333	567.196927
78.761857	65.692943	1298.563889	566.498243
78.337284	154.534654	1234.970667	567.196927
80.441430	86.937194	1288.855000	568.244624
80.378743	84.859475	1296.622111	567.196927
81.845424	148.997088	1254.873889	567.895435
83.030168	65.659442	1294.194889	567.895435
82.572389	94.555201	1267.010000	566.847607
80.575828	80.839010	1282.544222	567.546203
79.808943	75.630862	1287.398667	568.244624
80.929350	64.604985	1298.078444	567.895435
79.034193	64.662681	1306.331000	540.877741
