power (mW)	FWHM	peak value	peak location
0.742338	18.096374	893.217778	540.877741
0.771006	112.843844	932.053333	543.344427
0.666738	110.309950	958.267333	542.992172
0.692065	141.561273	950.985667	540.525187
0.719731	127.563343	923.800778	547.568165
0.855432	109.455175	888.848778	539.819951
1.369281	37.570416	959.238222	541.582722
1.398567	141.011211	926.228000	543.696641
2.681975	131.951627	917.975444	539.819951
2.719324	104.657191	912.150111	550.731920
4.090106	129.066751	933.024222	540.877741
4.237115	143.426825	940.305889	541.582722
5.706398	103.544433	913.121000	545.105066
7.561753	136.958857	939.335000	540.172591
7.983976	135.547365	942.247667	539.467270
10.124712	147.873217	933.995111	541.582722
10.549550	155.095419	917.490000	538.761779
11.747197	127.078542	925.257111	540.877741
13.673479	146.474202	969.432556	538.761779
16.507061	108.828902	1016.035222	545.809023
17.718098	146.885545	1028.656778	539.819951
19.613208	123.959045	1071.375889	548.271522
21.822081	88.202054	1140.794444	541.582722
24.136295	86.629579	1232.058000	548.271522
27.519694	86.629579	1232.058000	548.271522
29.414339	49.082425	1349.050111	541.582722
31.194242	48.384880	1437.886444	542.992172
35.026995	43.226369	1488.372667	539.467270
35.342318	37.732741	1570.412778	541.582722
41.923820	33.927184	1705.366333	543.696641
43.778156	32.899258	1753.425333	539.819951
46.519906	32.206664	1831.096444	541.582722
47.146989	28.754804	1983.526000	545.809023
54.056552	26.679630	2186.927222	544.400939
53.362135	27.369063	2231.588111	539.114546
57.734252	25.986667	2364.114444	547.568165
63.985615	25.986667	2364.114444	547.568165
65.911974	23.565842	2687.420444	538.761779
69.020822	22.527639	2838.879111	543.344427
73.356263	21.489301	3036.455000	542.287532
77.063858	22.179637	3141.311000	541.935148
81.232039	20.796107	3313.643778	540.877741
87.091088	19.757586	3506.365222	541.935148
87.638083	20.102912	3538.890000	539.819951
91.455859	20.105499	3903.458778	547.919865
95.869304	18.371103	4375.796222	544.048811
99.955895	18.025642	4672.402778	538.761779
106.281194	17.677861	4863.182444	544.048811
107.978762	17.677861	4720.461778	543.344427
115.340820	15.943725	5385.035222	541.230253
117.586984	16.291373	5452.512000	544.400939
122.281350	15.943725	5653.971444	541.582722
127.371773	15.250524	5959.801444	542.992172
129.770941	15.250524	5546.688222	543.344427
135.014916	15.250524	5546.688222	543.344427
136.630854	13.862336	7094.285111	548.271522
141.134881	14.209808	7431.669000	550.380563
145.441469	14.209808	7431.669000	550.380563
152.045977	13.514909	7897.210222	541.935148
160.341256	13.862336	8062.261333	542.639873
160.564691	13.167527	8380.712889	544.400939
165.038020	12.820188	8473.432778	544.048811
165.755954	11.779959	9121.501111	591.193626
167.631335	12.127208	9372.961333	540.525187
176.478631	12.472894	9360.339778	591.193626
174.509443	12.127208	9908.892000	549.326236
183.075771	10.738477	11362.312667	545.457066
187.514269	12.127208	11597.267778	544.753024
191.030116	9.697395	12039.507667	542.992172
194.575300	11.432754	11962.807444	546.512808
201.202859	10.044378	12457.475333	540.172591
200.097613	9.350457	12055.041889	540.877741
208.928343	9.350457	12773.985111	591.539851
206.898409	8.657832	13179.331222	541.230253
211.617584	9.003563	13400.208444	591.539851
218.069786	9.003563	13457.490889	553.541223
221.297936	8.310983	14260.416000	553.892193
227.414980	9.697395	14359.446667	539.467270
227.221894	7.963149	14385.175222	591.539851
227.381708	8.309909	14034.684333	541.582722
234.177569	8.309909	13891.478222	554.594002
236.129132	7.963149	13653.610444	540.877741
238.372827	7.616433	14212.842444	545.105066
244.082720	8.656714	14131.773222	541.935148
248.055626	7.963149	15738.594333	539.819951
256.033427	8.309909	16484.237000	553.541223
256.279972	8.309909	17305.123556	591.539851
254.860264	7.617418	18354.169000	540.172591
257.771462	7.963149	17885.715111	551.434504
258.743530	7.616433	18981.363222	538.761779
262.978836	7.963149	18334.751222	591.886030
258.169602	7.963149	18494.947889	550.029164
258.322805	7.963149	17521.146333	538.761779
263.223447	7.616433	17789.111667	540.877741
264.784600	7.269762	18643.008444	541.230253
266.363216	7.616433	18075.038444	591.886030
272.440329	7.616433	15872.091556	543.344427
275.454181	7.616433	18662.911667	542.992172
272.421562	7.616433	19415.350556	544.753024
272.292411	7.269762	19002.722778	591.886030
270.494772	7.616433	18411.936889	549.677721
273.346040	7.269762	18350.285444	545.457066
275.966176	7.616433	18811.457667	541.582722
283.001410	7.269762	19503.216000	550.029164
278.572785	7.269762	19503.216000	550.029164
