power (mW)	FWHM	peak value	peak location
-0.090557	112.128511	44.660889	0.000000
-0.088569	38.144267	37.379222	0.000000
-0.084277	26.747204	47.573556	0.000000
-0.010479	154.826044	31.068444	0.000000
-0.001096	39.871330	54.855222	0.000000
-0.011637	9.073772	88.836333	0.000000
0.000477	5.922030	134.468111	0.000000
0.029004	6.255677	162.623889	0.000000
0.087664	20.881319	224.760778	0.000000
0.091258	25.737194	253.402000	0.000000
0.175972	21.910062	375.248556	574.174125
0.180180	22.264908	392.724556	574.174125
0.294983	22.619969	543.212333	574.174125
0.307721	22.270562	576.222556	574.174125
0.425144	22.963591	745.157222	574.174125
0.556406	21.230683	876.712667	574.174125
0.615012	24.008897	985.937667	574.174125
0.714143	24.008897	985.937667	574.174125
0.852440	24.704794	1191.280667	573.825682
0.888935	25.054332	1250.990333	573.825682
0.955157	23.662449	1425.264889	573.825682
1.199582	22.281857	1744.687333	573.477195
1.276507	25.403914	1757.794333	573.128664
1.393235	23.321870	1935.467000	573.477195
1.505126	23.321870	2123.334000	573.477195
1.671288	22.631439	2383.532222	573.128664
1.852237	21.937874	2563.146667	572.780089
1.944074	22.978155	2351.492889	572.780089
2.200335	22.631439	2884.025444	572.780089
2.234162	22.284679	3044.707556	572.780089
2.472969	21.940650	3334.032444	572.082808
2.622803	21.593756	3569.958444	572.082808
2.814345	22.287499	3892.293556	572.082808
2.879677	21.593756	4061.228222	572.082808
3.063902	20.899835	4473.856000	572.082808
3.331558	21.246818	4794.249333	571.734101
3.436024	21.596487	4900.076222	571.734101
3.665245	20.902477	5283.577333	571.385351
3.941777	20.902477	5499.600111	571.734101
4.027026	20.555405	5586.009222	571.385351
4.276377	20.555405	5882.615778	571.385351
4.401973	20.208289	6289.903667	571.385351
4.660580	19.861128	6888.942111	571.036557
4.879114	19.863636	7221.957000	571.036557
5.032519	19.516386	7291.861000	571.036557
5.285539	19.516386	7683.614667	571.036557
5.490549	19.516386	7947.696444	570.687718
5.716932	19.516386	8478.287222	570.687718
5.874486	19.169092	8912.760000	570.687718
6.100922	19.169092	9083.151000	570.687718
6.304926	19.171510	9718.597778	570.338836
6.512654	19.171510	10172.488333	570.338836
6.639747	18.824127	10546.766000	570.338836
6.902750	18.824127	11330.273333	570.338836
7.115081	18.476700	11819.601333	570.338836
7.429507	18.129229	12438.057556	569.989910
7.550432	18.476700	12734.178667	569.989910
7.630972	18.479028	13368.169111	569.989910
7.969887	17.434153	14320.611111	569.989910
8.183689	17.783953	14834.211333	569.989910
8.325219	17.783953	15158.973667	569.989910
8.747819	17.783953	15912.868889	569.640940
8.719785	17.783953	15749.274111	569.989910
8.991257	17.436348	16839.582333	569.640940
9.162670	17.436348	17137.645222	569.640940
9.228643	17.436348	17035.216444	569.640940
9.490057	17.436348	17468.718333	569.640940
9.599613	17.088700	18647.377444	569.640940
9.994579	16.741007	19602.246667	569.291927
10.051656	16.743113	20723.623333	569.291927
10.449930	16.743113	21556.646000	569.291927
10.587288	16.743113	22029.468889	569.291927
10.583377	16.743113	21959.079444	569.291927
10.853242	16.743113	20370.219778	569.291927
10.841836	16.743113	22542.583667	569.291927
11.352754	16.395332	24518.342556	568.942870
11.347087	16.395332	24448.438556	568.942870
11.648324	16.395332	25603.310889	568.942870
11.667132	16.395332	25832.440667	568.942870
11.926004	16.395332	25755.740444	568.942870
12.006112	16.047506	26370.313111	568.942870
11.896959	16.047506	26412.061333	568.942870
12.263217	16.047506	27773.247556	568.942870
12.378240	15.699637	29536.381778	568.942870
12.414996	16.049523	30900.966111	568.593768
12.460251	15.699637	30309.209333	568.593768
12.637777	16.049523	31054.852000	568.593768
12.857195	16.049523	30748.051111	568.593768
13.063690	16.049523	30870.868556	568.593768
13.045887	16.049523	31855.835333	568.593768
13.074084	16.049523	32043.702333	568.593768
12.932068	16.049523	32565.555111	568.593768
13.303887	15.701609	33616.542333	568.593768
13.386480	15.701609	33933.052111	568.593768
13.233639	15.701609	33786.933333	568.593768
13.393587	15.701609	34027.713778	568.593768
13.800209	15.701609	35090.351667	568.593768
13.765091	15.701609	35101.516889	568.593768
13.922154	15.701609	35554.436556	568.593768
13.793758	15.701609	36062.211444	568.593768
13.911708	15.701609	35945.219333	568.593768
14.151598	15.701609	36356.876222	568.593768
14.100815	15.701609	35790.848000	568.593768
14.313233	15.701609	37596.215889	568.244624
14.193366	15.353651	38587.493444	568.244624
