power (mW)	FWHM	peak value	peak location
0.022990	105.923676	4262.202222	542.639873
0.025852	26.631694	4135.986667	542.287532
0.048296	113.376226	4274.338333	544.400939
0.075536	131.827851	4240.357222	540.877741
0.105596	115.006803	4140.841111	543.344427
0.136884	142.426473	4216.085000	544.400939
0.175866	34.284815	4203.948889	547.568165
0.223269	47.620160	4332.591667	542.992172
0.281542	61.739571	4065.597222	542.992172
0.349071	64.514041	4053.461111	542.639873
0.416600	42.792231	4301.037778	543.344427
0.496730	72.715330	4152.977222	542.287532
0.574288	41.390168	4240.357222	544.400939
0.669470	47.245469	4191.812778	544.048811
0.786901	33.794117	4138.413889	542.287532
0.919573	36.548767	4155.404444	542.992172
1.018740	38.627380	4174.822222	544.048811
1.151120	36.899174	4172.395000	542.639873
1.311752	34.131710	4172.395000	543.344427
1.454372	34.131710	4169.967778	544.048811
1.489626	31.361380	4104.432778	547.216422
1.737297	31.361380	4237.930000	540.877741
1.889873	28.244899	4165.113333	542.287532
2.020307	31.365338	4104.432778	567.546203
2.221782	31.357421	4245.211667	543.344427
2.353264	28.584589	4201.521667	541.582722
2.525100	28.241342	4203.948889	542.639873
2.762176	27.550978	4541.332778	543.344427
2.932859	30.668351	4502.497222	541.582722
3.062889	28.584589	4706.383889	541.230253
3.325250	26.853500	4844.735556	542.287532
3.471593	26.159312	5072.894444	543.344427
3.675359	26.503092	5182.119444	543.344427
3.945082	27.203950	5417.560000	543.696641
4.117759	24.767289	5541.348333	542.992172
4.390618	24.767289	5776.788889	543.344427
4.693866	28.588191	5839.896667	540.172591
4.879923	25.114539	5980.675556	541.935148
5.122928	24.767289	6182.135000	566.498243
5.193874	26.156021	6230.679444	543.344427
5.525540	24.767289	6466.120000	541.582722
5.884802	24.072657	6740.396111	566.148836
6.022002	25.461744	6810.785556	565.799385
6.325389	24.072657	6997.681667	540.525187
6.670615	23.725274	7597.205556	646.010000
6.886045	23.030376	7754.975000	541.230253
7.076541	23.377847	7968.570556	542.992172
7.248323	23.377847	7975.852222	541.230253
7.347947	23.377847	8128.767222	542.992172
7.942055	22.682860	8102.067778	542.287532
8.130387	22.682860	8670.037778	565.100353
8.276885	22.682860	8738.000000	542.992172
8.585362	21.987696	9043.830000	542.639873
8.879063	21.640048	9626.363333	543.344427
9.121682	21.987696	9597.236667	543.344427
9.475703	20.944618	10238.023333	564.401146
9.583144	20.944618	10522.008333	564.401146
9.944738	20.944618	10873.955556	564.401146
10.098675	19.898647	11944.360556	543.344427
10.264069	20.249011	11682.220556	542.639873
10.466406	20.249011	11852.126111	541.935148
10.994084	19.553228	12990.493333	542.287532
11.264157	19.205270	13725.941667	563.701765
11.557022	18.857267	14191.968333	542.992172
11.741443	18.506903	14381.291667	541.582722
11.994861	17.462632	15876.460556	542.639873
12.125363	17.810767	16126.464444	543.344427
12.330774	17.810767	16565.791667	544.048811
12.655377	17.462632	18097.368889	543.696641
12.837662	17.462632	17939.599444	542.639873
12.986113	17.114453	18641.066667	543.344427
13.393875	16.766231	19961.475556	543.344427
13.400218	15.721298	21847.427222	542.992172
13.968879	15.372899	24337.757222	543.344427
13.988671	15.372899	25136.313333	541.582722
14.241121	15.372899	25427.580000	543.344427
14.530519	15.024456	27612.080000	563.352009
14.698914	15.372899	27961.600000	543.696641
14.646606	15.372899	26614.491667	543.344427
14.776064	15.372899	26871.777222	542.992172
15.072603	15.372899	29029.577778	543.344427
15.353143	15.024456	29721.336111	542.287532
15.461722	15.024456	31197.087222	544.048811
15.506831	14.675969	31990.788889	543.344427
16.069997	14.675969	33342.751667	563.352009
15.909799	14.675969	32568.467778	563.352009
16.216855	14.675969	33279.643889	544.048811
16.342008	14.327439	34498.109444	563.352009
16.344368	14.327439	36527.267222	542.992172
16.482009	14.675969	35799.100556	542.992172
16.892511	13.978864	37772.432222	542.992172
16.715076	14.675969	37248.152222	541.582722
17.212535	14.327439	35223.848889	543.344427
16.861712	14.327439	39418.088889	543.344427
17.074623	13.978864	41881.719444	563.352009
17.037568	14.327439	41405.983889	541.582722
17.113884	14.327439	40728.788889	563.352009
16.953762	14.327439	36512.703889	563.002209
17.004180	13.978864	39719.064444	563.002209
17.602285	14.327439	39049.151111	563.352009
17.510658	14.675969	38910.799444	563.352009
17.333067	14.675969	38049.135556	563.352009
17.247957	15.024456	36486.004444	542.992172
17.399205	14.675969	37672.916111	540.172591
17.114748	14.675969	30369.404444	542.639873
