power (mW)	FWHM	peak value	peak location
0.037831	66.399872	1919.932778	542.639873
0.036842	140.805687	1849.543333	543.696641
0.037133	32.573923	1861.679444	542.287532
0.045737	18.804437	1849.543333	542.287532
0.057606	151.464072	1902.942222	542.639873
0.075945	151.464072	1902.942222	542.639873
0.098095	114.823656	1893.233333	541.582722
0.127681	103.490781	1907.796667	540.525187
0.164140	61.459662	1917.505556	542.639873
0.202215	45.195799	1851.970556	570.338836
0.241240	50.018023	1961.195556	538.761779
0.293245	38.276972	2172.363889	542.992172
0.352436	40.694570	2453.921667	541.230253
0.444321	36.894498	2652.953889	568.244624
0.447304	39.323336	2708.780000	542.639873
0.553166	34.810619	3143.252778	543.344427
0.669534	31.353460	3332.576111	542.639873
0.675091	33.088989	3218.496667	544.400939
0.798132	29.620998	3900.546111	544.048811
0.930706	29.270677	4111.714444	540.877741
0.962234	28.230664	4174.822222	540.525187
1.005082	30.656736	4310.746667	541.230253
1.248808	28.927700	4757.355556	539.819951
1.261019	27.190250	4861.726111	545.105066
1.368806	27.537099	5123.866111	567.895435
1.506693	27.537099	5123.866111	567.895435
1.635052	27.537099	5614.165000	541.935148
1.751522	25.799158	5835.042222	543.344427
1.854624	25.108220	6014.656667	543.696641
1.948024	24.413854	6143.299444	542.992172
2.155828	25.108220	6582.626667	543.344427
2.288312	25.108220	6665.152222	541.582722
2.397817	23.716327	6886.029444	542.992172
2.493397	24.066604	7046.226111	541.582722
2.717477	24.761059	7128.751667	543.344427
2.775042	23.369033	7352.056111	541.230253
3.048233	24.066604	7636.041111	542.287532
3.213390	24.413854	7551.088333	543.696641
3.281467	24.761059	7733.130000	540.877741
3.401208	23.719311	7944.298333	542.287532
3.657631	23.371972	8182.166111	540.172591
3.726612	23.024590	8407.897778	542.639873
3.954921	23.024590	8480.714444	567.196927
4.184195	23.024590	8480.714444	567.196927
4.444322	23.371972	8750.136111	543.344427
4.396145	23.024590	8818.098333	542.639873
4.541178	23.024590	8818.098333	542.639873
4.909972	21.979414	9497.720556	541.935148
5.030869	21.979414	9497.720556	541.935148
5.130571	23.024590	9349.660000	539.467270
5.271468	23.024590	9660.344444	542.287532
5.436609	21.631898	9881.221667	540.525187
5.610427	21.982176	10055.981667	541.230253
5.828579	22.677163	10221.032778	542.992172
5.969553	21.631898	10461.327778	542.992172
6.192173	21.634616	10444.337222	541.935148
6.259296	21.982176	10755.021667	542.287532
6.494380	21.634616	10871.528333	543.344427
6.851948	21.982176	10995.316667	540.525187
6.781442	21.634616	10873.955556	541.582722
6.899601	20.939363	11364.254444	566.847607
7.107109	20.936734	11378.817778	542.992172
7.252034	21.982176	10597.252222	544.400939
7.465604	21.634616	11691.929444	540.525187
7.625373	21.634616	11966.205556	541.230253
7.883953	21.287011	12022.031667	540.877741
8.020448	20.936734	12196.791667	566.847607
8.144820	20.939363	12162.810556	566.847607
8.501900	20.589086	12687.090556	543.344427
8.448492	20.589086	12616.701111	543.344427
8.797001	20.591670	12619.128333	541.935148
8.977660	20.589086	12893.404444	542.287532
9.098836	21.287011	12903.113333	566.498243
9.038839	20.591670	13060.882778	541.582722
9.242098	20.241393	13262.342222	566.498243
9.273347	20.589086	13395.839444	542.992172
9.379546	20.589086	13475.937778	537.703224
9.501926	20.939363	13517.200556	566.498243
9.586119	20.241393	14019.635556	538.408970
9.863162	19.893656	14293.911667	543.344427
10.046981	19.545875	14286.630000	538.761779
10.068752	20.591670	14085.170556	539.467270
10.238040	19.545875	14371.582778	542.992172
10.142961	19.545875	14793.919444	541.935148
10.129763	19.545875	14204.104444	543.344427
10.515209	19.893656	14563.333333	540.877741
10.534338	19.893656	14563.333333	540.877741
10.775801	19.545875	14883.726667	543.696641
10.725475	20.243933	14861.881667	544.753024
10.883926	19.545875	14932.271111	566.498243
10.691970	19.896152	14920.135000	545.105066
11.141193	19.548326	15461.405556	566.498243
11.272806	19.545875	15471.114444	566.148836
11.049575	19.545875	15471.114444	566.148836
10.993059	20.243933	15483.250556	539.114546
11.111344	19.893656	15424.997222	544.048811
11.211366	19.893656	15352.180556	541.582722
11.235366	19.198049	15718.691111	542.992172
11.116707	19.545875	15298.781667	566.498243
11.473571	19.896152	15742.963333	541.935148
11.098138	19.548326	15563.348889	541.582722
11.537162	19.896152	15706.555000	541.230253
11.568925	19.545875	16007.530556	540.877741
11.620416	19.198049	15820.634444	566.498243
11.417114	20.243933	14058.471111	540.877741
