power (mW)	FWHM	peak value	peak location
0.046487	129.521737	4169.967778	542.992172
0.052385	123.028548	4053.461111	542.992172
0.061911	93.459409	4051.033889	543.344427
0.077835	105.793050	4131.132222	543.696641
0.101250	118.042506	4152.977222	542.992172
0.128388	136.395485	4160.258889	542.992172
0.162643	141.270736	3985.498889	544.753024
0.174577	137.592150	4216.085000	542.287532
0.242005	105.967134	4165.113333	538.056118
0.287436	98.257642	4031.616111	542.992172
0.333260	148.405015	4087.442222	542.992172
0.409974	122.979186	4075.306111	542.992172
0.448054	117.338512	4031.616111	540.172591
0.535216	70.432021	4053.461111	543.344427
0.618015	127.745395	4157.831667	542.287532
0.702102	128.165219	4085.015000	542.287532
0.786838	139.154085	4152.977222	542.287532
0.851575	139.154085	4152.977222	542.287532
0.975446	131.107764	4245.211667	542.639873
0.979643	143.894632	3958.799444	541.582722
1.154478	116.013105	4257.347778	542.287532
1.277876	92.266130	3963.653889	542.639873
1.369285	129.821991	4080.160556	563.002209
1.503611	63.796817	4072.878889	543.344427
1.613447	154.203476	4111.714444	542.287532
1.745311	92.612845	4075.306111	542.287532
1.876888	140.191068	4102.005556	542.287532
1.990850	115.585177	4029.188889	539.467270
2.144700	47.785535	4116.568889	543.344427
2.273952	53.148224	4012.198333	542.992172
2.369291	141.921819	3987.926111	541.230253
2.596156	87.021690	4029.188889	542.287532
2.705977	63.566697	4007.343889	542.639873
2.852943	57.696839	4051.033889	542.287532
2.989992	41.592571	4068.024444	541.935148
3.189832	121.215772	4031.616111	542.992172
3.347292	58.156323	4111.714444	540.172591
3.480423	145.690940	4087.442222	542.639873
3.741198	61.577254	4109.287222	542.992172
3.819867	67.031751	4126.277778	542.639873
4.071002	45.788065	4116.568889	540.877741
4.194394	43.268329	4080.160556	543.344427
4.437301	30.730093	4138.413889	543.344427
4.535168	36.262493	4099.578333	542.992172
4.586595	23.085147	4089.869444	541.230253
4.998764	113.298517	4109.287222	540.877741
5.067022	18.174755	4007.343889	542.992172
5.293668	19.572798	3968.508333	542.992172
5.495128	24.129948	4034.043333	542.992172
5.647406	19.582563	4034.043333	543.344427
5.723456	124.665961	3980.644444	542.639873
6.061764	16.085707	3951.517778	542.287532
6.313074	124.665961	4041.325000	544.048811
6.300831	14.688788	4009.771111	542.992172
6.692646	105.846425	4092.296667	542.287532
6.844529	15.731117	3997.635000	544.400939
6.920610	15.386333	3958.799444	543.344427
7.233075	13.291518	4109.287222	543.344427
7.332379	15.382498	4179.676667	540.525187
7.538210	13.289864	4179.676667	562.652366
7.818038	11.543360	4133.559444	542.287532
7.870225	12.939326	4167.540556	541.935148
7.831107	13.638746	4199.094444	562.652366
8.272990	111.560261	4111.714444	543.344427
8.487312	11.543360	4138.413889	541.582722
8.696541	11.543360	4145.695556	542.287532
8.833801	11.892417	4046.179444	542.287532
9.032847	11.892417	4026.761667	543.344427
8.947086	11.892417	4133.559444	541.230253
9.362575	11.892417	3983.071667	542.992172
9.517059	11.892417	4114.141667	542.992172
9.652382	11.892417	4123.850556	542.992172
9.679879	10.845114	4075.306111	562.302480
9.860749	10.493314	4133.559444	543.344427
9.918811	10.845114	4128.705000	543.344427
10.140615	10.845114	4155.404444	543.344427
10.132026	11.194259	4089.869444	562.652366
10.504152	10.493314	4237.930000	542.992172
10.699415	10.144169	4356.863889	540.525187
10.702837	10.845114	4257.347778	562.302480
10.956910	10.144169	4436.962222	542.992172
10.781099	11.194259	4480.652222	542.992172
11.019678	9.794981	4635.994444	562.302480
11.165776	10.145431	4713.665556	541.230253
11.171383	9.794981	4723.374444	543.344427
11.218949	9.794981	4606.867778	562.652366
11.418851	10.843765	4703.956667	543.344427
11.485659	10.493314	4854.444444	540.525187
11.815599	10.493314	4854.444444	540.525187
11.878422	10.145431	4808.327222	542.639873
11.900064	9.446923	4869.007778	541.582722
11.808426	9.446923	4944.251667	543.696641
11.985390	9.445748	5043.767778	538.761779
12.074905	9.796199	5012.213889	539.114546
12.291440	9.796199	5014.641111	542.639873
12.014046	9.445748	4784.055000	540.877741
12.611850	9.445748	5174.837778	542.287532
12.236010	9.796199	5196.682778	543.344427
12.406602	9.446923	5269.499444	542.992172
12.581923	9.445748	5347.170556	541.230253
12.380257	9.445748	5203.964444	541.230253
12.451291	9.445748	5223.382222	544.753024
12.424335	9.445748	5252.508889	543.344427
12.473326	9.446923	5075.321667	543.696641
12.155754	9.096472	5191.828333	542.639873
