power (mW)	FWHM	peak value	peak location
0.230336	67.489269	912.635556	544.048811
0.302951	102.803112	890.790556	543.696641
0.244562	100.082529	917.490000	546.864636
0.310448	106.024510	873.800000	540.877741
0.439537	113.479127	871.372778	539.819951
0.581398	136.696032	941.762222	539.114546
0.822540	137.409958	924.771667	548.271522
1.029086	135.547365	900.499444	539.467270
1.734448	157.853503	934.480556	555.997101
1.818815	91.515409	859.236667	551.785731
2.210742	126.571025	958.752778	543.344427
2.487651	151.362557	915.062778	552.136916
2.893335	105.864849	915.062778	540.877741
3.382885	145.749669	990.306667	539.467270
3.636445	98.812029	1004.870000	552.839156
3.906026	141.139520	922.344444	542.639873
4.795013	143.942373	941.762222	540.877741
5.281009	130.785355	1007.297222	569.989910
5.953211	155.635617	983.025000	546.864636
5.948427	127.865981	985.452222	541.230253
7.003250	135.828316	1007.297222	539.114546
6.945782	115.337973	1067.977778	572.082808
8.222744	143.073488	1082.541111	571.036557
8.705926	120.718660	1092.250000	572.780089
9.968996	96.466209	1106.813333	571.734101
10.366715	148.883702	1167.493889	539.467270
11.266806	113.737800	1172.348333	540.525187
11.918938	135.601069	1140.794444	571.036557
12.690959	131.930248	1177.202778	568.244624
13.339420	83.336484	1230.601667	566.498243
14.331039	101.022902	1242.737778	541.935148
15.146962	86.510619	1286.427778	568.942870
16.287307	95.443835	1274.291667	538.761779
17.199613	84.703454	1279.146111	567.196927
19.011989	89.255225	1364.098889	540.525187
18.704026	82.930906	1378.662222	570.338836
20.425422	77.890956	1385.943889	569.989910
20.278127	85.728196	1400.507222	610.856525
22.026710	72.263747	1383.516667	569.989910
21.728901	83.089960	1432.061111	570.338836
24.522862	67.117246	1446.624444	538.761779
24.553338	61.467520	1565.558333	569.989910
26.031239	81.243101	1463.615000	570.338836
27.689681	69.079998	1529.150000	567.895435
28.280598	74.965942	1512.159444	568.942870
31.111044	65.332915	1567.985556	568.942870
30.857788	67.409130	1621.384444	569.291927
31.050326	64.728451	1631.093333	569.989910
31.795480	61.194384	1631.093333	569.640940
33.557885	60.139927	1669.928889	569.291927
34.270317	59.788528	1672.356111	569.291927
35.421988	60.475962	1682.065000	567.895435
38.752548	59.818969	1652.938333	569.989910
36.435515	54.640831	1730.609444	569.291927
40.211338	68.438293	1730.609444	567.895435
40.569652	60.139927	1716.046111	569.640940
41.252455	53.600227	1742.745556	569.640940
43.306241	55.308742	1837.407222	568.593768
43.598495	58.142895	1776.726667	540.525187
43.963590	53.910599	1813.135000	568.593768
44.241708	54.985343	1800.998889	570.338836
47.453650	58.398241	1898.087778	569.291927
47.750022	50.854634	1900.515000	569.640940
48.264015	53.613812	1881.097222	569.291927
48.446558	54.620034	1859.252222	569.640940
46.199327	52.910884	1849.543333	568.593768
50.317475	49.768779	1878.670000	567.895435
52.415558	49.448949	1975.758889	568.593768
52.378183	51.167291	1927.214444	569.989910
52.590025	58.069145	1888.378889	567.546203
56.693021	47.710928	1956.341111	567.895435
55.648509	48.031779	1983.040556	569.291927
56.427116	56.663977	1919.932778	570.338836
56.079678	46.984701	2029.157778	569.989910
57.078521	50.483980	1932.068889	568.593768
58.583213	51.180257	2004.885556	568.942870
58.238865	47.347711	2036.439444	569.989910
58.745585	47.020411	2063.138889	568.244624
65.588515	50.139015	1987.895000	569.291927
61.157672	46.984701	2114.110556	569.291927
60.513446	47.002565	1992.749444	569.291927
62.481720	50.822462	2048.575556	569.291927
64.326907	47.704891	2053.430000	567.895435
63.549871	47.710928	2075.275000	569.291927
65.501987	48.376744	2060.711667	567.895435
66.503370	53.593431	2046.148333	568.244624
66.584620	49.411369	2075.275000	639.222717
67.293504	48.740193	2060.711667	569.291927
64.204079	46.984701	2094.692778	568.593768
64.376212	49.423904	2080.129444	569.640940
66.761300	49.423904	2063.138889	568.942870
66.786166	44.596551	2055.857222	568.942870
66.316500	47.347711	2099.547222	568.593768
68.597246	49.085204	2012.167222	569.291927
67.803044	51.485936	2014.594444	569.291927
67.598851	44.947779	2043.721111	569.291927
67.649511	51.863389	2067.993333	568.593768
71.614820	52.863896	2029.157778	568.593768
69.874665	48.043953	2084.983889	623.199027
68.269403	45.615759	2070.420556	568.244624
