power (mW)	FWHM	peak value	peak location
0.108673	91.972406	4009.771111	542.639873
0.228395	121.231893	3980.644444	545.105066
0.372108	128.594934	4000.062222	540.877741
0.663399	83.993052	4089.869444	543.344427
0.906373	117.112488	4102.005556	542.992172
1.225566	141.883518	4140.841111	542.639873
1.959112	141.882447	4123.850556	538.408970
2.836371	117.866677	4145.695556	538.761779
3.627297	98.773678	4055.888333	543.344427
4.516725	123.741524	4051.033889	542.639873
5.819445	135.337349	4118.996111	542.992172
7.191480	71.505569	4019.480000	540.172591
8.103027	111.326002	4009.771111	542.639873
9.399602	91.124732	3980.644444	543.344427
11.131611	63.094370	4041.325000	545.457066
13.141602	72.327021	3949.090556	542.639873
14.838268	46.282806	3961.226667	541.935148
16.277727	48.315296	3968.508333	542.639873
18.277846	34.832655	4085.015000	542.639873
20.086704	38.637177	4150.550000	544.400939
22.922047	31.022714	4041.325000	542.287532
24.988607	41.411197	3997.635000	566.498243
26.724860	28.595393	4002.489444	542.639873
28.776826	30.676087	3861.710556	542.287532
32.107477	28.942287	3985.498889	566.498243
35.056434	27.554444	3936.954444	566.847607
37.280534	27.207373	4128.705000	541.582722
40.373905	27.210794	4230.648333	542.992172
42.750282	26.169178	4400.553889	566.498243
45.559756	27.210794	4538.905556	566.498243
49.096916	27.557910	4810.754444	542.639873
50.407724	28.598992	4905.416111	543.344427
53.190719	29.639673	5012.213889	542.287532
56.675542	26.516428	5308.335000	543.344427
61.373174	25.821884	5524.357778	544.048811
65.262412	24.432265	5747.662222	541.230253
66.393532	25.130317	5915.140556	543.344427
70.754165	24.782846	6024.365556	538.761779
76.359842	24.779737	6412.721111	538.408970
79.019711	24.435330	6458.838333	541.582722
85.123139	24.435330	6742.823333	540.877741
86.531526	23.740166	6888.456667	565.799385
90.512296	21.650900	7667.595000	565.799385
94.015250	21.998726	7684.585556	542.992172
96.598384	21.650900	8240.419444	542.639873
100.112404	20.607159	8730.718333	543.344427
106.032437	19.214885	9631.217778	543.344427
107.642473	18.866706	9946.756667	560.202248
111.374888	18.866706	10592.397778	560.202248
116.246985	17.123014	11140.950000	542.992172
122.835720	16.774615	12182.228333	541.230253
122.392573	16.077685	12541.457222	560.202248
126.082066	15.729155	13461.374444	542.992172
132.098165	15.380580	14191.968333	544.048811
134.243606	14.334592	14716.248333	543.344427
140.492211	13.288209	15975.976667	544.048811
140.532339	13.637047	15891.023889	542.992172
147.094531	13.637047	16429.867222	559.852058
151.990459	12.939326	17412.892222	543.344427
152.394571	12.241431	17789.111667	544.400939
156.505930	12.590401	18172.612778	542.992172
157.743005	11.892417	18789.127222	545.457066
165.758620	4.553040	20109.536111	559.852058
170.743081	5.252206	21097.415556	544.753024
172.191905	6.651142	21871.699444	540.525187
177.626510	7.350349	22735.790556	559.852058
184.510636	5.951761	22218.792222	559.852058
187.182135	3.152496	25769.818333	543.344427
186.904706	3.152496	24862.037222	544.400939
190.314698	3.152496	25507.678333	542.639873
192.513235	3.152496	26539.247778	559.852058
196.549412	3.152496	26968.866111	541.582722
197.902578	3.152496	27065.955000	542.992172
202.736818	3.152496	27840.238889	543.344427
208.279257	3.152496	29170.356667	540.877741
210.185513	3.152496	29565.993889	543.344427
215.791491	3.152496	29993.185000	559.852058
217.382144	3.152496	31282.040000	542.287532
215.871771	3.152496	30046.583889	542.992172
223.641214	2.802045	32330.600000	559.852058
225.873269	3.152105	32845.171111	539.467270
224.467298	3.152496	33410.713889	559.852058
228.276010	3.502556	33187.409444	559.852058
224.484434	3.152496	33558.774444	559.852058
229.617650	3.152496	34197.133889	559.852058
238.422305	2.802045	35881.626111	544.048811
241.314574	2.802045	36512.703889	559.852058
237.125275	2.802045	36791.834444	559.852058
242.704525	2.802045	35485.988889	559.852058
243.367417	2.802045	38447.200000	559.852058
243.674848	2.802045	37575.827222	542.287532
252.436870	3.152105	38835.555556	543.344427
254.251482	2.802045	39988.486111	544.400939
253.346028	2.802045	40711.798333	543.344427
249.047601	2.802045	40277.325556	559.852058
257.402356	2.802045	40621.991111	540.525187
257.146172	3.152105	41206.951667	543.344427
250.383513	3.152105	39990.913333	544.400939
255.383668	3.152105	40942.384444	542.992172
262.773619	2.802045	41114.717222	559.852058
255.797035	3.152105	41891.428333	544.400939
258.444272	3.152105	42182.695000	543.344427
254.566199	2.802045	41995.798889	559.852058
252.999877	3.152105	41699.677778	560.202248
258.382572	2.802045	42510.370000	560.202248
