power (mW)	FWHM	peak value	peak location
-0.163348	118.217084	4046.179444	541.582722
0.024200	61.845949	4046.179444	543.344427
0.344777	147.275771	4053.461111	544.048811
0.689872	94.955483	3939.381667	543.344427
1.023853	129.319125	4148.122778	542.992172
1.329357	63.910983	3968.508333	542.287532
2.190353	66.882361	3873.846667	542.992172
2.998304	62.291352	4026.761667	542.287532
3.680716	79.525945	4012.198333	541.935148
4.638830	68.911447	3885.982778	544.400939
5.512653	53.470699	4167.540556	544.400939
5.996975	59.292828	3895.691667	542.992172
8.008681	34.131710	4031.616111	543.344427
9.290616	34.832655	4085.015000	542.287532
11.155451	29.971362	4021.907222	545.105066
12.832171	36.553398	4063.170000	567.546203
14.442093	34.823845	4665.121111	567.895435
16.216496	29.278064	5191.828333	542.287532
18.108044	29.281756	5439.405000	544.400939
20.688360	26.156021	6119.027222	542.287532
22.300099	25.808904	6568.063333	544.400939
23.547350	26.159312	6805.931111	538.408970
26.089570	26.159312	7361.765000	542.287532
28.631496	26.509762	7832.646111	542.992172
31.374409	25.818641	8291.391111	539.114546
33.790240	26.165891	8594.793889	543.344427
37.204369	25.124009	9354.514444	542.992172
39.160284	24.081728	9706.461667	544.400939
42.232804	24.776626	10242.877778	539.819951
45.733072	24.081728	10587.543333	542.287532
48.899202	24.429199	11359.400000	543.344427
50.724723	24.084750	11657.948333	543.344427
54.143189	24.084750	12024.458889	543.344427
57.368289	24.084750	12752.625556	542.992172
59.879798	23.737190	13007.483889	542.639873
62.464405	24.084750	13407.975556	543.344427
66.896429	23.389585	13427.393333	566.148836
71.208930	22.346507	14961.397778	541.230253
74.899918	22.346507	14961.397778	541.230253
76.387817	22.694244	15767.235556	566.148836
80.592861	22.694244	16182.290556	566.148836
84.001647	23.044824	16519.674444	541.582722
86.966017	21.998726	17313.376111	565.799385
91.099116	22.697087	17514.835556	541.935148
93.926099	22.697087	18063.387778	565.449891
98.261726	22.349306	18730.873889	565.449891
101.403275	22.001481	18995.441111	565.449891
104.375253	22.001481	19709.044444	543.344427
110.173633	21.653611	20359.540000	543.344427
116.510887	20.957739	21929.952778	542.992172
117.922714	20.957739	22204.228889	563.352009
121.667655	20.261691	23364.441111	563.352009
124.731287	19.214885	25650.884444	541.935148
130.998914	19.214885	25830.498889	563.002209
135.163857	19.217287	26811.096667	542.992172
136.581704	18.170217	28250.439444	542.992172
139.763369	18.170217	28968.897222	560.902499
146.012125	17.821906	30112.118889	541.230253
149.779627	17.821906	28898.507778	560.902499
148.848678	17.821906	30893.684444	543.344427
152.364291	17.473551	32636.430000	543.344427
160.647917	17.125152	34036.937222	543.344427
161.935831	16.776709	35481.134444	560.902499
169.786939	16.428223	36568.530000	560.902499
173.120736	16.079692	38794.292778	543.344427
173.330913	15.382498	40255.480556	543.344427
176.962814	15.731117	40342.860556	560.902499
181.311439	15.382498	42037.061667	560.902499
187.756691	14.685129	44498.265000	561.252560
192.396005	13.985841	46474.023889	561.252560
191.500795	13.288209	48420.656111	543.344427
196.692021	13.985841	48153.661667	561.252560
198.109564	13.288209	49316.301111	561.252560
196.951465	13.288209	49668.248333	561.252560
205.812813	12.939326	52025.081111	561.252560
206.931261	13.288209	51644.007222	561.252560
207.509682	13.288209	52452.272222	561.252560
214.452715	12.590401	54915.902778	541.582722
213.166234	12.590401	54481.430000	542.639873
219.318271	12.241431	56049.415556	561.252560
221.525389	11.892417	56811.563333	561.252560
222.002179	11.543360	56578.550000	561.252560
230.615795	12.241431	58789.749444	561.252560
235.066167	12.241431	59442.672222	541.582722
232.946360	12.241431	59411.118333	541.582722
230.416282	11.892417	60413.561111	542.639873
238.318951	12.241431	60753.372222	561.252560
237.269886	12.241431	61942.711111	561.602576
239.172904	11.892417	61794.650556	561.602576
237.655360	11.892417	61532.510556	561.602576
240.990496	11.892417	62486.408889	540.877741
241.522748	12.241431	62661.168889	561.602576
240.109419	11.892417	62471.845556	561.602576
236.103660	11.892417	62209.705556	561.252560
243.518455	12.241431	63141.758889	561.252560
248.141750	11.892417	64241.290556	561.602576
250.630919	11.892417	65151.498889	561.602576
250.470080	11.892417	65535.000000	543.344427
248.620636	12.241431	64442.750000	561.602576
251.753651	11.892417	64100.511667	561.602576
254.583545	12.241431	65115.090556	561.602576
254.871510	11.892417	65272.860000	561.602576
253.542443	11.192866	63835.944444	543.344427
253.392756	11.892417	65020.428889	561.602576
257.676886	11.892417	65289.850556	543.344427
