power (mW)	FWHM	peak value	peak location
1.444357	87.439978	3240.341667	544.400939
1.446408	33.751290	3211.215000	544.400939
1.763930	133.887614	3269.468333	543.344427
2.084939	134.186033	3199.078889	538.761779
2.370361	134.925915	3152.961667	542.992172
2.758100	52.507852	3196.651667	541.582722
3.240042	67.222866	3189.370000	542.639873
4.064261	48.395744	3203.933333	543.344427
4.924916	95.029813	3167.525000	542.992172
5.811149	90.775519	3172.379444	545.105066
6.944255	44.211796	3264.613889	543.344427
8.271455	70.961347	3235.487222	542.639873
9.632461	35.861712	3368.984444	568.942870
10.963469	110.508779	3245.196111	568.593768
12.367744	31.699818	3720.931667	542.287532
14.073227	29.620998	4240.357222	568.593768
16.190154	28.234225	4708.811111	540.172591
17.536998	28.584589	5145.711111	543.344427
20.093715	28.584589	5145.711111	543.344427
21.839135	26.499756	6080.191667	544.048811
23.545936	26.152728	6453.983889	541.582722
26.277546	27.540571	6786.513333	567.546203
27.933106	27.887420	7211.277222	540.877741
30.715449	27.887420	7560.797222	544.400939
32.410075	25.808904	7825.364444	542.639873
35.924412	25.114539	8359.353333	544.400939
38.334870	26.156021	8589.939444	542.639873
41.393179	25.114539	9150.627778	538.761779
43.343296	25.114539	9461.312222	542.287532
46.050825	24.767289	9861.803889	540.172591
49.175409	25.464946	10119.089444	541.230253
52.242482	24.770403	10114.235000	543.344427
55.343373	24.770403	10883.664444	566.847607
59.520040	24.075682	11102.114444	543.344427
61.305298	23.728255	11344.836667	545.105066
65.666903	23.380783	11905.525000	566.498243
67.510386	23.728255	12208.927778	542.992172
73.971564	23.728255	13012.338333	542.639873
77.083998	23.380783	13094.863889	543.344427
81.066554	23.033268	13679.824444	645.671083
82.945096	23.380783	13876.429444	543.344427
88.672695	23.033268	14509.934444	542.639873
88.853855	23.383718	14437.117778	541.230253
94.560726	23.036158	15293.927222	543.344427
99.033222	23.036158	15706.555000	562.302480
101.991289	21.642762	16721.133889	544.753024
103.306049	20.599418	17400.756111	543.344427
107.533799	20.251549	18551.259444	543.344427
113.436102	19.903635	18861.943889	542.639873
115.848414	19.555677	19420.205000	561.952550
121.891824	19.207675	21075.570556	544.048811
123.080774	18.511538	22284.327222	543.696641
126.168900	18.511538	22075.586111	561.602576
133.034960	17.467002	22978.512778	543.344427
138.462591	17.467002	24556.207222	561.602576
137.888710	17.118735	24665.432222	542.287532
143.361394	16.770424	26437.304444	561.252560
149.293128	16.071662	27595.089444	542.639873
151.998806	16.422069	28112.087778	543.344427
154.807570	16.073671	29279.581667	544.048811
157.202443	15.026333	30752.905556	544.400939
163.022801	15.026333	30752.905556	544.400939
167.420949	14.329228	32755.363889	561.252560
167.961116	14.677803	32961.677778	561.252560
173.529680	13.980609	33842.759444	561.252560
175.849198	13.283240	35714.147778	543.344427
182.183471	12.934489	36811.252222	543.344427
181.097397	12.934489	37648.643889	561.252560
190.030585	12.236857	39415.661667	560.902499
191.701145	11.887975	40609.855000	560.902499
193.072157	11.539049	41112.290000	560.902499
199.424126	10.841065	43544.366667	560.902499
199.232320	10.492008	44522.537222	560.902499
202.049339	10.841065	44330.786667	560.902499
205.371296	9.793762	45743.430000	543.344427
209.935964	4.551348	43770.098333	560.902499
212.342059	10.492008	46585.676111	560.902499
218.641199	10.841065	46915.778333	543.344427
220.587547	10.841065	47114.810556	540.877741
221.949769	9.793762	48415.801667	542.639873
221.537170	9.793762	47609.963889	560.902499
234.081526	10.142907	49095.423889	560.902499
229.586661	5.250903	50207.091667	560.902499
232.836581	9.793762	49903.688889	560.902499
232.254225	9.444573	50187.673889	560.902499
239.247619	9.793762	50418.260000	560.902499
239.125244	8.746065	51896.438333	560.902499
238.705008	9.793762	51991.100000	541.935148
236.620800	6.299910	53231.410556	560.902499
242.021168	8.047382	53745.981667	560.902499
246.384554	7.697975	54413.467778	542.639873
250.444561	5.250903	54937.747778	543.344427
249.248906	8.047382	54532.401667	543.344427
249.593472	7.348524	54158.609444	560.902499
245.811790	5.950284	53991.131111	543.344427
250.842004	3.851141	53508.113889	543.344427
253.409915	5.250252	55071.245000	560.902499
246.644276	7.347611	54491.138889	560.902499
247.996021	7.697018	55515.426667	560.902499
257.805549	6.998160	55576.107222	560.902499
256.795599	7.697018	56071.260556	542.639873
256.134802	7.348524	56462.043333	560.902499
260.794977	7.697018	56855.253333	560.902499
257.624709	7.697018	56005.725556	560.902499
255.741877	7.348524	56083.396667	560.902499
