power (mW)	FWHM	peak value	peak location
0.013875	88.285777	4029.188889	544.048811
0.022965	114.630336	3852.001667	542.639873
0.017673	114.630336	3852.001667	542.639873
0.040114	129.676281	3750.058333	544.753024
0.073597	30.303231	4012.198333	543.344427
0.102216	150.507246	3973.362778	544.400939
0.133649	118.150210	4007.343889	542.992172
0.152374	117.409045	4055.888333	541.935148
0.199571	91.666438	4034.043333	570.687718
0.268115	63.215800	4077.733333	542.287532
0.323316	58.061756	4000.062222	542.992172
0.363217	47.680724	3968.508333	540.877741
0.407332	46.271059	4089.869444	539.819951
0.487049	60.032454	3978.217222	543.344427
0.576362	50.081801	3990.353333	542.992172
0.642436	52.830264	4043.752222	541.582722
0.754424	43.159277	3997.635000	541.230253
0.863449	44.178156	3944.236111	570.338836
0.895298	42.457813	4014.625556	541.582722
1.051578	40.730733	4104.432778	542.992172
1.161370	45.563719	4102.005556	542.639873
1.226246	42.101804	4085.015000	543.344427
1.358953	43.142854	4218.512222	538.408970
1.448217	38.997591	4281.620000	570.687718
1.566137	39.673830	4723.374444	570.338836
1.678371	42.786796	4784.055000	569.640940
1.817172	38.296387	5000.077778	646.010000
2.005564	37.259059	5245.227222	544.400939
2.162079	39.678861	5446.686667	569.291927
2.261668	40.019292	5699.117778	539.819951
2.374980	40.019292	5699.117778	539.819951
2.527704	37.600119	5818.051667	569.989910
2.710886	36.562656	6121.454444	542.287532
2.823235	35.178745	6468.547222	570.338836
3.008878	40.019292	6468.547222	540.877741
3.227244	39.673830	6606.898889	569.989910
3.279741	40.369829	6784.086111	569.989910
3.502484	38.982773	6815.640000	543.344427
3.728898	39.673830	7092.343333	569.989910
3.842614	36.908522	7269.530556	542.992172
4.080801	36.562656	7565.651667	542.992172
4.179799	37.600119	7572.933333	569.291927
4.333596	36.562656	7912.744444	538.761779
4.564110	35.870790	8041.387222	569.989910
4.692125	39.673830	8094.786111	542.639873
4.983664	36.562656	8349.644444	569.989910
5.058330	36.562656	8160.321111	569.291927
5.249234	36.908522	8653.047222	540.172591
5.469263	36.908522	8740.427222	569.640940
5.755396	37.600119	8839.943333	569.989910
5.879646	34.477800	9075.383889	569.291927
6.097225	36.908522	9170.045556	569.989910
6.210485	36.562656	9271.988889	569.989910
6.238194	36.212162	9373.932222	569.989910
6.669959	36.562656	9543.837778	541.230253
6.764079	35.515801	9878.794444	569.989910
7.032933	36.212162	9963.747222	569.989910
7.191528	35.866252	10259.868333	569.640940
7.315791	35.515801	10373.947778	569.291927
7.384003	36.553398	10320.548889	569.989910
7.650370	34.828251	10444.337222	569.989910
7.733940	35.866252	10473.463889	569.989910
7.817111	36.212162	10488.027222	569.989910
8.034926	36.903849	10536.571667	569.989910
8.279688	36.903849	10856.965000	569.989910
8.607266	35.866252	11138.522778	569.640940
8.462531	36.903849	11119.105000	569.989910
8.578662	35.866252	11119.105000	569.640940
8.914008	35.515801	11347.263889	542.639873
9.088713	36.903849	10968.617222	569.989910
9.472413	35.515801	11798.727222	569.640940
9.247163	36.903849	11789.018333	569.989910
9.647115	36.903849	11839.990000	543.344427
9.445425	36.558028	11837.562778	569.989910
9.682765	36.903849	11837.562778	569.989910
9.754210	36.212162	11985.623333	543.344427
10.028733	35.515801	12298.735000	569.989910
10.107556	35.866252	12221.063889	569.989910
10.347138	36.553398	12298.735000	569.640940
10.731237	35.866252	12684.663333	569.989910
10.749736	36.212162	12638.546111	569.640940
10.746301	36.553398	12844.860000	569.989910
10.854638	36.553398	12900.686111	569.291927
10.807330	35.515801	12893.404444	569.989910
11.009290	34.131710	12949.230556	569.989910
11.315162	35.515801	13070.591667	569.989910
11.050392	35.515801	13022.047222	569.989910
11.630148	35.169846	13323.022778	569.989910
11.475053	36.903849	13051.173889	569.989910
11.451116	36.553398	13274.478333	569.989910
11.524709	35.515801	13407.975556	569.989910
11.894896	35.866252	13053.601111	569.989910
11.798646	35.866252	13541.472778	569.989910
11.815891	35.515801	13691.960556	569.989910
11.732709	35.861712	13643.416111	569.989910
12.032759	36.553398	13791.476667	569.989910
12.099713	35.515801	13963.809444	569.989910
12.050938	35.515801	14070.607222	569.640940
12.394098	36.903849	14126.433333	569.989910
12.246758	35.169846	14267.212222	569.989910
12.355366	34.127393	14318.183889	569.640940
12.288524	35.515801	14082.743333	569.989910
12.313576	35.169846	14077.888889	569.640940
12.312634	36.553398	14056.043889	569.989910
11.957862	35.861712	10553.562222	569.640940
