power (mW)	FWHM	peak value	peak location
35.373893	4.892004	42131.723333	566.148836
36.238952	4.542291	33752.952222	566.148836
35.711029	4.542291	49182.803889	566.498243
35.641971	4.892004	37893.793333	566.148836
35.927215	5.241760	43643.882778	566.148836
35.642335	5.241760	40442.376667	566.148836
35.792694	5.241760	43777.380000	565.799385
35.660472	4.892004	36585.520556	566.148836
35.587576	5.241760	35464.143889	566.148836
35.717888	5.591559	37704.470000	565.799385
35.962681	5.241105	39129.249444	566.148836
36.097944	5.241760	33833.050556	565.799385
35.948559	5.241760	32913.133333	566.148836
35.578231	4.892004	37017.566111	566.148836
35.513370	4.891392	37573.400000	566.498243
35.845159	5.241760	37257.861111	566.148836
35.492956	5.241760	34119.462778	566.148836
35.585303	5.590861	38034.572222	566.148836
36.014005	4.892004	46804.126111	566.148836
35.496970	4.892004	34466.555556	566.148836
35.012732	5.241105	33272.362222	566.148836
34.956820	4.892004	35959.297222	566.148836
36.002172	5.241760	35837.936111	566.148836
35.738319	4.892004	39104.977222	566.148836
35.662579	4.892004	40738.497778	566.148836
36.472094	4.892004	43949.712778	566.148836
36.102143	5.241105	35100.060556	566.148836
36.540980	5.241760	35420.453889	565.799385
35.669052	5.241105	35350.064444	566.148836
35.547139	5.241105	35073.361111	566.148836
35.946083	5.241760	45680.322222	566.148836
36.378601	4.892004	39187.502778	566.148836
35.937500	4.892004	35333.073889	566.148836
35.107176	5.590861	43585.629444	566.148836
35.456323	4.892004	42299.201667	566.148836
36.273096	5.241760	39240.901667	566.148836
36.113025	5.241760	43403.587778	565.799385
36.181885	5.241105	46835.680000	566.148836
35.757962	4.892004	38714.194444	566.148836
35.957908	5.940660	39226.338333	566.148836
35.724571	5.241760	44782.250000	566.148836
36.023362	5.241760	46663.347222	566.148836
35.770555	4.891392	32920.415000	566.498243
35.952567	5.590861	38036.999444	566.148836
35.185780	5.590861	41027.337222	566.148836
35.280225	4.542291	33966.547778	566.498243
35.339559	5.241760	35978.715000	566.148836
35.388026	5.241760	38119.525000	566.148836
34.712048	5.241105	33114.592778	566.148836
35.078358	5.241105	37762.723333	566.148836
35.927017	5.591559	39418.088889	565.799385
35.644625	4.892004	38910.799444	566.148836
35.587599	5.590861	38648.659444	566.148836
35.742117	5.940660	43607.474444	566.148836
