power (mW)	FWHM	peak value	peak location
29.340692	57.373775	1694.201111	542.639873
29.210377	77.313213	1640.802222	542.992172
28.746176	46.030716	1696.628333	541.230253
28.488054	44.222994	1599.539444	544.048811
28.240393	44.222994	1599.539444	544.048811
27.993513	49.367427	1694.201111	543.344427
28.594109	58.701072	1684.492222	538.761779
28.830877	79.803482	1575.267222	545.105066
28.747902	59.550466	1648.083889	542.992172
29.041149	48.547679	1691.773889	542.992172
29.172981	48.547679	1691.773889	542.992172
28.920188	51.108835	1711.191667	538.761779
28.957767	61.365056	1657.792778	541.582722
29.462800	46.669183	1725.755000	539.819951
29.557242	46.669183	1725.755000	539.819951
29.761193	116.749125	1271.864444	565.449891
29.768626	33.139092	1742.745556	539.114546
29.735052	33.139092	1742.745556	539.114546
29.693657	68.973672	1762.163333	540.172591
29.942047	42.128499	1757.308889	540.525187
30.125596	54.213502	1737.891111	540.525187
29.640412	41.788281	1686.919444	565.100353
29.729909	33.502640	1774.299444	545.809023
29.982510	33.502640	1774.299444	545.809023
29.744388	62.516797	1737.891111	540.172591
30.229014	48.382877	1754.881667	541.935148
30.360278	59.925183	1742.745556	543.696641
30.490971	48.709301	1798.571667	540.877741
30.171976	33.832478	1822.843889	544.753024
29.774170	33.832478	1822.843889	544.753024
29.564285	44.551430	1774.299444	564.750771
29.400981	59.318032	1665.074444	565.100353
29.250645	50.400692	1742.745556	545.809023
29.218578	53.518518	1786.435556	541.230253
29.015006	48.783353	1728.182222	541.230253
29.163627	149.589691	1798.571667	565.100353
29.525190	33.494227	1771.872222	544.048811
29.687348	46.615979	1725.755000	539.819951
29.418719	89.614707	1682.065000	539.819951
29.385337	85.077724	1650.511111	541.582722
29.449831	65.245021	1677.210556	541.230253
29.756609	69.124173	1635.947778	545.809023
29.301381	69.229885	1667.501667	537.350288
29.065571	65.541828	1703.910000	539.114546
28.749809	74.193489	1696.628333	541.230253
28.319951	44.692021	1696.628333	544.048811
28.578652	47.680724	1703.910000	543.344427
28.624642	75.185941	1609.248333	540.525187
28.986376	66.269318	1669.928889	545.105066
29.146837	56.627867	1737.891111	540.172591
29.593110	41.432196	1786.435556	542.287532
29.652831	53.769375	1691.773889	538.761779
29.867270	53.769375	1735.463889	541.582722
30.199444	51.472853	1689.346667	538.761779
30.131711	59.070794	1750.027222	540.525187
29.962676	43.510074	1720.900556	542.992172
29.801635	45.247504	1694.201111	548.271522
29.867658	44.925062	1694.201111	565.449891
29.795145	40.069973	1742.745556	540.877741
29.785038	45.604208	1825.271111	540.877741
29.856977	49.097636	1752.454444	564.750771
30.260501	42.479339	1808.280556	544.048811
30.145066	51.154317	1745.172778	541.935148
30.931900	57.293333	1873.815556	564.750771
30.413890	49.085204	1723.327778	540.877741
29.940155	49.085204	1723.327778	540.877741
29.756999	92.965180	1701.482778	540.877741
29.741347	48.389009	1735.463889	541.230253
29.536823	34.521341	1771.872222	542.287532
29.098961	34.521341	1771.872222	542.287532
29.090373	80.411303	1621.384444	548.623136
28.987337	42.884336	1737.891111	565.100353
29.084834	79.895431	1609.248333	541.935148
29.240714	40.075032	1679.637778	542.992172
28.753249	63.448806	1638.375000	540.877741
28.702489	75.891602	1662.647222	538.761779
28.543180	60.560575	1660.220000	540.877741
28.676918	57.856884	1643.229444	564.750771
28.894230	71.957647	1580.121667	541.582722
28.841200	55.329811	1648.083889	543.344427
28.625978	64.818589	1626.238889	564.750771
28.535732	65.253216	1597.112222	545.457066
28.651542	73.901238	1611.675556	546.512808
28.553675	62.046669	1662.647222	541.230253
28.631336	65.374526	1631.093333	542.992172
28.402370	73.357249	1640.802222	538.408970
28.617785	62.046669	1635.947778	542.287532
28.640489	59.467440	1616.530000	565.100353
28.638574	97.123783	1611.675556	546.160937
28.881454	51.843659	1672.356111	539.467270
28.989246	66.311775	1686.919444	540.525187
28.970360	66.413376	1648.083889	541.230253
28.978181	41.447927	1655.365556	541.935148
29.098196	44.635930	1648.083889	539.819951
29.024933	75.982605	1628.666111	541.935148
29.462981	70.437964	1662.647222	538.761779
29.453440	75.605659	1691.773889	542.287532
29.499811	75.605659	1691.773889	542.287532
29.329053	55.961651	1703.910000	541.582722
29.523650	57.754481	1592.257778	539.467270
29.840931	59.849368	1682.065000	539.467270
29.481482	87.731089	1657.792778	539.114546
29.585851	64.604985	1716.046111	542.287532
29.664070	99.428410	1660.220000	564.401146
29.682767	99.428410	1660.220000	564.401146
