power (mW)	FWHM	peak value	peak location
26.600921	14.331016	939.335000	564.401146
26.901616	12.931262	917.490000	564.401146
26.739430	12.585695	992.733889	564.401146
26.716152	13.628543	898.072222	564.051477
26.619239	11.882044	978.170556	564.401146
26.637549	17.464817	912.635556	564.750771
26.884640	12.230750	961.180000	564.750771
27.144872	13.283240	1031.569444	564.750771
26.889404	15.723263	934.480556	564.401146
26.624574	17.464817	900.499444	564.401146
26.855827	14.677803	949.043889	564.401146
27.220615	14.677803	949.043889	564.401146
27.093920	12.238382	1063.123333	564.401146
27.778678	12.582555	1026.715000	564.051477
27.536185	14.677803	1009.724444	564.401146
27.266977	13.625137	927.198889	564.750771
27.895629	13.625137	927.198889	564.750771
27.461583	14.677803	917.490000	564.401146
27.648752	15.026333	980.597778	564.401146
27.741096	17.114453	1004.870000	564.750771
27.811487	13.630245	924.771667	564.750771
27.613461	14.329228	944.189444	564.401146
27.469214	12.932876	978.170556	564.401146
27.188749	15.028210	876.227222	564.750771
27.372487	13.283240	1024.287778	564.750771
27.984360	13.276607	1055.841667	564.051477
27.867019	17.114453	1000.015556	564.750771
27.741285	13.631946	990.306667	564.401146
27.353023	13.625137	917.490000	564.750771
27.481804	13.978864	932.053333	564.750771
27.316002	15.372899	932.053333	565.100353
27.888760	12.229222	1082.541111	564.401146
28.143099	11.887975	1017.006111	564.750771
28.076515	12.926416	970.888889	564.750771
27.782496	15.372899	932.053333	564.401146
27.668779	14.675969	980.597778	564.401146
27.494217	18.161131	910.208333	564.750771
27.187989	13.631946	912.635556	564.750771
27.043922	14.327439	968.461667	564.750771
27.175201	15.026333	868.945556	564.750771
27.048707	13.623434	1012.151667	564.750771
26.989565	14.327439	985.452222	564.401146
27.294064	11.882044	951.471111	564.401146
27.422281	11.882044	951.471111	564.401146
27.536560	13.631946	1009.724444	564.401146
27.594579	12.926416	1026.715000	564.401146
27.518632	12.932876	1026.715000	564.401146
27.851752	12.580984	1007.297222	564.750771
27.540384	11.184499	1077.686667	564.750771
27.501848	16.759935	893.217778	564.750771
27.869688	17.114453	927.198889	564.750771
27.816842	12.931262	980.597778	564.401146
27.738238	14.327439	956.325556	564.750771
28.124009	13.623434	1043.705556	564.401146
