power (mW)	FWHM	peak value	peak location
72.347396	6.288145	4320.455556	566.498243
73.375174	5.589463	5844.751111	566.847607
74.444746	6.288145	4422.398889	566.847607
73.721103	5.939176	5779.216111	566.847607
73.975616	6.288932	5456.395556	566.498243
73.491753	6.288932	5456.395556	566.498243
74.156869	5.240450	6186.989444	566.498243
72.786957	7.336627	3910.255000	566.498243
73.782692	5.939176	5701.545000	566.498243
73.144719	6.288145	4313.173889	566.847607
74.397062	7.336627	4189.385556	566.847607
74.184901	5.939176	5985.530000	566.498243
74.332580	5.939176	4878.716667	566.847607
73.113997	5.939176	4878.716667	566.847607
73.710043	6.637901	4461.234444	566.498243
73.758466	6.288145	4650.557778	566.847607
73.550513	6.288145	4864.153333	566.847607
72.980992	6.288145	4619.003889	566.847607
73.231314	6.288145	3803.457222	566.847607
72.368200	6.288145	4594.731667	566.847607
72.443171	6.288145	4080.160556	566.847607
73.759456	5.589463	6888.456667	566.847607
74.304716	6.288145	5818.051667	566.847607
73.654699	5.938433	5762.225556	566.847607
73.629722	6.288145	5412.705556	566.847607
72.690635	5.588764	5538.921111	567.196927
73.020300	6.288145	5303.480556	566.847607
73.891867	6.288932	6483.110556	566.498243
74.386393	6.288145	5216.100556	566.847607
72.796311	6.637071	4602.013333	566.847607
75.162126	5.939176	7534.097778	566.498243
72.996278	6.288145	5318.043889	566.847607
73.698198	6.288145	5318.043889	566.847607
75.435522	5.938433	6026.792778	566.847607
75.435522	6.288145	5524.357778	566.847607
75.146684	5.589463	7038.944444	566.847607
75.235998	5.589463	7975.852222	566.847607
74.872124	6.288145	5788.925000	566.847607
74.979552	5.589463	6577.772222	566.847607
74.939110	5.938433	5599.601667	566.847607
74.603304	5.589463	9131.210000	566.847607
74.754242	5.938433	6837.485000	566.847607
74.552378	6.637901	7570.506111	566.498243
75.382134	6.288145	6339.904444	566.847607
75.567578	6.288145	6339.904444	566.847607
72.571758	6.288145	5883.586667	566.847607
74.088760	6.288145	7004.963333	566.847607
74.539002	5.239794	6536.509444	566.847607
75.611466	5.589463	5966.112222	566.847607
75.613748	6.288145	5128.720556	566.847607
74.939098	6.288145	6271.942222	566.847607
73.326728	5.588764	7456.426667	567.196927
73.516939	5.239794	6541.363889	567.196927
73.437951	6.637901	5711.253889	566.498243
73.109218	5.939176	7570.506111	566.847607
72.406366	6.287359	5342.316111	567.196927
71.551040	4.890781	7247.685556	566.847607
73.523814	5.939176	6854.475556	566.847607
