power (mW)	FWHM	peak value	peak location
0.085934	75.771103	924.771667	542.287532
0.103140	70.640736	898.072222	539.819951
0.126729	72.846374	922.344444	543.344427
0.346312	68.031764	961.180000	540.877741
0.413817	126.787860	939.335000	550.029164
0.528778	126.404948	881.081667	543.344427
0.563120	83.721072	890.790556	543.344427
1.012209	13.365941	883.508889	538.761779
1.132166	38.274262	834.964444	545.105066
1.539627	121.664797	910.208333	543.344427
1.817211	91.634517	813.119444	544.400939
1.912052	136.886489	961.180000	552.488057
2.141210	125.198620	936.907778	540.172591
2.668140	145.124623	856.809444	539.467270
3.382534	150.768312	915.062778	543.696641
3.787569	95.488984	915.062778	538.761779
4.528809	146.433667	915.062778	541.582722
4.902622	111.606296	893.217778	543.696641
5.642547	154.680295	900.499444	540.877741
6.140963	130.877861	907.781111	542.287532
6.607955	143.750925	900.499444	539.819951
7.596182	129.564890	883.508889	541.230253
8.142127	125.215175	922.344444	544.400939
8.601272	114.774819	876.227222	540.877741
10.333317	119.660870	958.752778	548.271522
10.782609	106.533497	900.499444	542.287532
11.623132	86.166634	917.490000	539.114546
12.561341	140.895024	902.926667	548.271522
12.987811	89.300810	995.161111	544.048811
15.213411	135.756363	1004.870000	543.696641
15.565375	104.603096	1072.832222	546.160937
17.325997	78.646197	1060.696111	542.992172
18.104976	59.070794	1116.522222	539.467270
18.563786	62.824294	1116.522222	554.594002
19.820585	65.022698	1167.493889	541.230253
21.070930	149.681651	1296.136667	538.761779
22.105428	64.571856	1293.709444	543.696641
22.422078	45.697189	1317.981667	540.877741
23.884860	38.977830	1419.925000	541.582722
25.306009	25.345726	1480.605556	542.992172
28.623903	26.751591	1490.314444	542.992172
29.048643	21.541698	1633.520556	544.400939
29.398943	21.530695	1694.201111	539.114546
31.873607	23.265527	1660.220000	538.761779
32.743196	18.062656	1861.679444	539.819951
33.413695	18.757366	1902.942222	542.992172
34.056473	17.370162	1953.913889	540.172591
35.744804	16.324834	2160.227778	544.048811
36.981063	18.064962	2131.101111	539.819951
37.934411	15.978520	2259.743889	545.105066
40.848443	19.459525	2101.974444	540.172591
43.906030	15.632162	2354.405556	538.761779
44.196675	15.980561	2381.105000	539.114546
44.206441	15.285759	2398.095556	546.512808
45.806326	15.285759	2483.048333	541.230253
46.886280	12.503350	2834.995556	540.525187
50.041761	14.937404	2733.052222	539.819951
50.680360	15.634157	2762.178889	540.172591
51.089389	13.896153	2883.540000	540.172591
53.408987	13.547886	3051.018333	544.753024
53.434044	12.854767	3111.698889	539.819951
53.334401	12.156813	3169.952222	542.992172
55.341537	11.807213	3189.370000	540.877741
56.023311	11.808722	3199.078889	538.761779
57.213504	13.896153	3279.177222	538.761779
58.327984	12.849842	3424.810556	546.512808
60.124077	12.851484	3478.209444	540.172591
61.436514	12.503350	3534.035556	554.594002
62.519329	12.156813	3740.349444	539.467270
63.751630	10.416802	4053.461111	539.819951
64.640285	10.070220	4257.347778	548.623136
65.179025	10.418134	4303.465000	539.114546
67.262186	11.808722	4199.094444	540.172591
66.575683	11.112674	4536.478333	543.696641
69.698636	12.156813	4284.047222	544.400939
72.265162	10.418134	4941.824444	544.753024
71.730261	9.722351	4885.998333	538.761779
71.653868	10.766092	4963.669444	545.105066
73.083829	12.156813	4750.073889	539.467270
74.210128	9.722351	5055.903889	547.919865
75.553425	9.722351	5014.641111	551.785731
77.162099	10.418134	4968.523889	545.457066
77.988487	9.723594	5410.278333	544.048811
78.972175	10.418134	5128.720556	539.467270
79.690191	9.374525	5949.121667	546.160937
83.024605	9.374525	5985.530000	541.935148
82.501862	9.722351	5895.722778	538.408970
82.690828	10.070220	5718.535556	545.457066
84.629570	9.722351	5679.700000	542.639873
87.215023	8.332380	6961.273333	538.761779
87.426357	10.416802	5378.724444	545.457066
88.608384	9.374525	6021.938333	540.525187
88.881980	10.418134	5995.238889	539.467270
89.319939	9.722351	5352.025000	545.105066
88.704437	9.026744	6339.904444	547.568165
88.406405	9.374525	6216.116111	544.048811
89.757136	8.331314	6429.711667	542.287532
87.096745	9.721107	5810.770000	546.864636
86.886190	9.722351	5895.722778	538.761779
87.841829	9.374525	5820.478889	539.819951
