power (mW)	FWHM	peak value	peak location
0.449547	145.354204	871.372778	540.877741
0.461064	52.247799	820.401111	558.801226
0.487012	152.772348	866.518333	543.696641
0.666217	69.316799	917.490000	542.639873
0.689389	98.336367	856.809444	540.525187
0.720680	146.512501	898.072222	551.785731
0.919727	79.453576	839.818889	538.408970
1.233667	157.711972	747.584444	544.400939
1.441664	153.872150	864.091111	539.819951
1.653199	129.032362	844.673333	544.400939
1.810758	46.360204	895.645000	552.839156
2.204345	112.077334	827.682778	541.935148
2.617217	148.471476	754.866111	543.696641
2.723506	147.667537	905.353889	546.512808
3.313434	110.317550	890.790556	543.344427
3.845222	102.459370	815.546667	542.992172
4.135503	141.799271	834.964444	538.761779
4.785651	117.162991	810.692222	541.230253
5.412906	91.725806	762.147778	541.230253
5.709083	139.246528	834.964444	541.582722
6.282013	128.250195	866.518333	545.105066
8.282270	124.763936	895.645000	543.696641
8.504559	130.716284	949.043889	550.380563
9.209725	100.135713	1031.569444	542.992172
10.146129	94.968751	1050.987222	538.761779
10.745841	116.840298	1082.541111	541.582722
11.419232	51.097333	1160.212222	543.344427
12.217081	29.303880	1310.700000	538.761779
13.052060	42.549091	1245.165000	547.568165
13.361629	48.585202	1320.408889	539.819951
15.671451	46.503118	1344.681111	538.056118
15.952297	25.432874	1441.770000	555.997101
16.336107	19.528688	1526.722778	541.230253
17.347438	17.082245	1640.802222	544.048811
18.590079	19.169092	1643.229444	544.048811
19.634367	13.601232	1784.008333	541.582722
20.150121	14.296927	1791.290000	544.048811
20.837676	14.644708	1936.923333	545.105066
22.892743	12.554198	2046.148333	540.525187
24.527443	12.206240	2043.721111	571.036557
25.003175	12.204704	2106.828889	538.761779
26.016098	11.858238	2327.706111	546.160937
27.809614	11.858238	2383.532222	538.761779
28.162742	12.204704	2415.086111	539.819951
31.026019	11.855253	2453.921667	542.287532
31.861193	10.463156	2803.441667	542.287532
33.153996	11.856746	2660.235556	543.696641
32.792814	11.510192	2725.770556	544.400939
35.043666	10.463156	2968.492778	542.992172
35.359956	11.160697	2939.366111	571.036557
36.216104	10.113749	3152.961667	542.992172
37.187177	11.159293	2873.831111	538.761779
37.960903	10.113749	3286.458889	571.385351
39.217828	9.764385	3560.735000	540.877741
40.204963	10.113749	3546.171667	550.731920
41.676753	10.811246	3531.608333	543.344427
42.451783	10.113749	3822.875000	539.114546
43.782325	9.416251	4014.625556	540.877741
43.992622	9.764385	3973.362778	553.190211
47.268333	10.461839	3771.903333	542.639873
48.348286	10.113749	4223.366667	538.056118
48.961185	9.415066	4242.784444	539.114546
48.915648	10.461839	4296.183333	539.114546
50.736511	10.112476	4284.047222	571.734101
52.927832	9.415066	4441.816667	544.400939
52.786788	10.461839	4451.525556	547.216422
52.587328	10.461839	4383.563333	542.639873
53.888534	9.415066	4521.915000	544.048811
56.596477	9.415066	4752.501111	541.935148
57.339071	9.763156	5019.495556	548.974707
58.096071	10.112476	4803.472778	541.582722
59.118985	10.112476	4684.538889	543.344427
60.056154	9.763156	5041.340556	540.172591
61.886800	9.763156	4983.087222	542.992172
61.544767	9.764385	5237.945556	543.696641
61.722646	9.763156	5123.866111	542.287532
62.882447	10.460522	4956.387778	544.753024
64.157483	10.460522	4905.416111	546.160937
64.889913	9.413880	5318.043889	545.457066
66.951049	9.763156	5354.452222	539.467270
67.739307	10.809886	5075.321667	550.029164
68.038321	9.761926	5587.465556	546.864636
68.514070	9.413880	5284.062778	545.809023
70.233402	10.460522	5354.452222	548.271522
70.984488	9.761926	5609.310556	542.639873
71.832521	9.064648	5970.966667	544.753024
72.222432	9.064648	5873.877778	541.582722
73.185225	9.761926	5609.310556	539.819951
72.792850	9.761926	5747.662222	544.400939
73.453606	9.412694	5725.817222	539.114546
75.040707	9.761926	5956.403333	543.344427
73.881244	10.111202	5723.390000	542.992172
74.304268	9.413880	5730.671667	543.344427
73.619179	9.412694	5696.690556	547.919865
74.001020	9.761926	5575.329444	551.083233
74.103220	9.063505	5852.032778	544.048811
75.061602	9.761926	5684.554444	545.457066
75.672559	9.412694	5679.700000	542.992172
75.668240	10.111202	5631.155556	539.114546
74.891213	9.761926	5555.911667	542.639873
