power (mW)	FWHM	peak value	peak location
0.290740	85.006652	902.926667	544.048811
0.332158	99.808708	934.480556	541.230253
0.337709	150.335083	847.100556	544.400939
0.448091	120.468417	859.236667	539.819951
0.478895	156.090307	934.480556	540.172591
0.481184	113.007917	944.189444	540.877741
0.643946	131.599457	927.198889	539.819951
0.752317	110.567688	868.945556	538.408970
1.068546	134.480284	912.635556	540.172591
1.253093	34.299511	907.781111	542.992172
1.309290	121.264857	995.161111	539.114546
1.568419	69.251029	936.907778	550.380563
1.842951	119.937643	810.692222	540.172591
1.949029	127.529873	941.762222	543.344427
2.390766	119.142670	849.527778	553.541223
2.945587	130.686848	929.626111	543.344427
3.769877	130.949275	924.771667	541.582722
4.080208	144.479362	927.198889	539.467270
4.329209	153.994861	902.926667	539.467270
4.615742	120.060573	934.480556	543.344427
4.689144	127.496381	883.508889	544.753024
5.097854	108.659713	849.527778	541.582722
5.490261	123.233495	934.480556	539.819951
6.763223	72.101402	847.100556	545.105066
6.954012	153.432129	912.635556	540.877741
7.240823	140.471806	951.471111	553.541223
7.952096	127.274935	915.062778	541.582722
8.099806	124.966277	910.208333	539.819951
8.779923	156.425167	907.781111	539.114546
9.459768	154.618300	970.888889	545.105066
10.305769	113.752571	951.471111	546.160937
10.879116	114.235293	1084.968333	561.252560
12.631901	110.267702	1101.958889	547.216422
12.870073	59.978524	1160.212222	541.935148
13.180548	41.978416	1240.310556	543.696641
13.995679	67.571967	1247.592222	539.114546
14.602052	72.032215	1313.127222	540.877741
15.760255	34.690973	1407.788889	539.467270
16.865877	30.179344	1400.507222	539.114546
17.232757	40.199907	1354.390000	544.048811
17.906421	36.772349	1446.624444	542.639873
18.375352	22.230904	1679.637778	541.935148
20.413829	28.119678	1618.957222	540.525187
20.571119	22.922681	1764.590556	540.877741
23.296450	21.873763	1805.853333	539.114546
23.616008	24.308803	1771.872222	538.761779
23.615257	24.651336	1815.562222	545.457066
24.530421	19.442130	1946.632222	546.512808
24.717538	19.101059	2099.547222	545.105066
26.203425	17.709641	2131.101111	538.761779
27.193802	19.101059	2048.575556	541.935148
27.261251	18.060348	2274.307222	543.344427
28.270983	17.017327	2434.503889	539.114546
29.704059	17.019502	2213.626667	544.400939
30.089269	18.415887	2432.076667	548.623136
31.012271	17.356843	2487.902778	544.400939
31.514506	15.628168	2584.991667	544.048811
31.564527	16.320661	2713.634444	560.202248
32.193174	14.935496	2818.005000	539.819951
32.716907	15.630165	3041.309444	540.172591
33.413054	13.196290	3201.506111	551.083233
34.740267	15.279901	3053.445556	545.809023
35.689305	13.546156	3305.876667	540.525187
36.057153	13.194603	3390.829444	539.467270
36.440121	12.849842	3684.523333	545.457066
37.418225	12.501752	3718.504444	541.230253
39.734492	14.587229	3521.899444	548.974707
40.401493	13.196290	3667.532778	547.568165
40.714451	10.764716	4281.620000	540.877741
41.287557	12.849842	4089.869444	544.753024
42.642031	11.808722	4271.911111	540.172591
43.763186	13.894378	4055.888333	552.136916
45.659287	13.546156	4051.033889	541.582722
46.355049	13.546156	2565.573889	541.230253
46.906049	12.849842	4320.455556	552.136916
47.362338	12.851484	4434.535000	541.582722
48.377009	12.848200	4478.225000	538.408970
49.629380	10.764716	5167.556111	545.105066
49.629990	10.416802	5371.442778	544.753024
50.720771	10.416802	5563.193333	542.287532
51.075931	9.722351	5653.000556	548.271522
50.729450	9.722351	5587.465556	538.761779
51.949402	10.416802	5286.490000	541.935148
52.262741	10.416802	5534.066667	542.287532
53.398849	11.459211	5196.682778	540.172591
54.128172	9.722351	5927.276667	543.344427
55.198532	9.722351	6034.074444	543.696641
55.915155	10.764716	5728.244444	544.400939
56.470875	10.416802	5910.286111	555.646391
57.062807	10.068932	6041.356111	538.761779
58.382542	11.111253	5985.530000	542.287532
57.903622	10.764716	5856.887222	549.677721
58.198335	9.374525	6254.951667	544.400939
57.616453	10.068932	5951.548889	542.639873
57.808843	8.679007	6541.363889	542.992172
57.279899	10.416802	6009.802222	542.639873
56.456309	10.416802	5956.403333	542.287532
57.831186	10.764716	5864.168889	547.216422
57.685710	8.679007	6373.885556	541.230253
57.095306	11.112674	5827.760556	542.287532
