power (mW)	FWHM	peak value	peak location
0.218933	102.073263	788.847222	543.344427
0.200409	102.501566	905.353889	540.525187
0.187504	68.886333	803.410556	545.105066
0.200409	107.530185	769.429444	543.344427
0.263127	126.694184	779.138333	538.761779
0.332159	48.644615	885.936111	539.467270
0.391200	124.949519	844.673333	540.172591
0.428734	110.257667	813.119444	552.136916
0.555489	152.413278	851.955000	539.114546
0.757727	124.198662	849.527778	543.344427
0.897248	86.779774	839.818889	542.992172
0.961633	141.825901	820.401111	539.819951
1.423765	15.435448	849.527778	542.992172
1.496334	103.181715	815.546667	543.696641
1.835805	99.505240	769.429444	544.753024
1.964225	87.686248	844.673333	540.172591
2.059968	145.710586	825.255556	540.525187
2.471106	144.417369	878.654444	546.512808
2.794896	134.013527	924.771667	547.216422
3.065681	133.501976	975.743333	545.457066
3.927366	86.700784	995.161111	540.525187
4.152708	107.983021	1041.278333	546.864636
4.248934	86.488535	1274.291667	546.160937
4.503210	106.203813	1225.747222	544.753024
4.980398	71.126038	1276.718889	541.935148
5.707692	51.793408	1415.070556	562.302480
6.027944	36.668145	1601.966667	540.172591
6.170934	35.321044	1737.891111	543.696641
7.105399	29.432473	1961.195556	539.819951
7.360642	24.948828	2106.828889	543.696641
8.716165	23.904689	2332.560556	545.105066
9.020044	23.559769	2728.197778	542.992172
9.222355	21.831679	2703.925556	546.864636
10.658843	21.831679	2864.122222	540.525187
10.800232	20.102912	3106.844444	554.594002
11.069971	19.757586	3509.763333	540.525187
11.507687	19.755042	3487.918333	539.819951
12.656181	18.716519	3628.697222	539.819951
12.942582	19.412214	3934.527222	540.877741
13.283986	17.682410	4432.107778	541.230253
13.916728	18.027961	4703.956667	545.457066
14.716804	16.295566	5007.359444	542.287532
15.053366	15.949880	5575.329444	541.230253
15.754913	15.602143	5771.934444	540.172591
16.722540	15.949880	5990.384444	540.877741
17.163162	15.949880	6012.229444	539.467270
18.545951	14.910636	6606.898889	541.582722
18.870989	14.908719	6682.142778	542.992172
18.845467	14.562943	7242.831111	541.582722
20.353483	15.256412	6980.691111	544.753024
20.454701	14.562943	7563.224444	548.271522
21.017650	14.562943	8046.241667	542.287532
21.438356	14.564815	8012.260556	543.696641
22.864503	15.256412	4335.018889	543.696641
23.016717	14.910636	8716.155000	546.512808
24.659195	13.177697	9861.803889	542.992172
24.704301	13.177697	10194.333333	545.457066
25.051320	13.176004	10480.745556	542.992172
26.024429	12.482533	11102.114444	542.639873
26.941060	13.177697	11456.488889	586.688646
28.569529	12.136578	12228.345556	540.172591
29.032832	12.136578	11983.196111	541.582722
29.921582	13.177697	12376.406111	586.688646
30.116455	11.790578	14451.681111	540.525187
30.105148	12.136578	14026.917222	540.877741
31.151030	12.484138	14524.497778	540.172591
32.250266	12.831742	14915.280556	539.114546
32.469719	11.443062	15944.422778	542.992172
32.720374	10.749546	17240.559444	546.160937
33.416868	10.749546	17209.005556	542.287532
34.118503	10.749546	18310.964444	539.819951
34.822001	11.095591	17587.652222	545.105066
35.337949	11.790578	17495.417778	539.819951
35.730229	10.749546	19065.830556	587.035450
36.309266	10.056029	19864.386667	587.035450
36.613711	11.443062	18679.902222	539.114546
37.650430	11.790578	18485.724444	587.035450
38.049082	11.097017	20024.583333	541.582722
39.121686	10.403456	21359.555556	545.105066
38.850422	10.749546	21347.419444	543.344427
39.678372	10.749546	20182.352778	544.048811
40.231328	11.097017	21301.302222	539.819951
40.759150	10.749546	21155.668889	547.568165
40.094576	10.402119	22738.217778	539.467270
41.406813	10.056029	22966.376667	540.877741
41.450289	9.708646	24514.944444	540.172591
42.317617	9.708646	24512.517222	541.935148
42.886177	10.749546	23095.019444	539.819951
43.210112	9.015173	26272.253333	539.819951
43.531190	11.097017	22932.395556	541.230253
44.461488	10.056029	24056.199444	587.382210
44.499219	9.708646	26034.385556	542.639873
44.910775	10.403456	23896.002778	540.172591
45.472396	10.403456	25874.188889	542.992172
45.715031	9.361308	26820.805556	544.048811
45.705307	9.708646	25107.186667	542.639873
45.479271	10.056029	24558.634444	544.400939
45.619350	10.056029	24891.163889	587.382210
45.383188	9.362511	27058.673333	587.382210
45.278084	9.708646	26087.784444	544.048811
