power (mW)	FWHM	peak value	peak location
0.204155	136.253026	786.420000	541.582722
0.214840	54.895563	803.410556	542.287532
0.278113	101.815107	750.011667	543.344427
0.352002	43.066930	827.682778	542.639873
0.533495	57.533385	842.246111	543.344427
0.694316	113.120012	810.692222	544.753024
0.905852	24.853708	820.401111	541.230253
1.016720	121.792896	851.955000	542.639873
1.405309	64.464292	788.847222	544.048811
1.777180	104.899725	832.537222	544.400939
2.014177	157.337820	803.410556	543.344427
3.102591	157.416107	735.448333	539.467270
3.882477	118.603463	808.265000	539.819951
4.115731	148.796878	796.128889	542.992172
4.831715	81.026762	815.546667	542.992172
5.119778	147.100448	881.081667	542.639873
5.433301	130.638912	844.673333	538.408970
6.324194	121.857221	849.527778	541.582722
7.198017	114.422776	907.781111	541.230253
8.096128	104.345871	936.907778	540.525187
8.815649	46.411492	1138.367222	539.467270
9.475028	68.790036	1067.977778	545.809023
9.796880	46.475469	1191.766111	546.512808
11.824124	79.113344	1320.408889	541.582722
12.015265	56.167383	1264.582778	541.230253
12.411001	23.027483	1334.972222	540.172591
13.545134	18.472041	1383.516667	540.525187
14.227336	16.033369	1565.558333	544.048811
16.282891	15.338205	1652.938333	540.172591
17.211246	12.201629	1672.356111	545.105066
17.802013	13.244973	1679.637778	541.230253
19.027096	12.552618	1927.214444	542.287532
20.003465	13.249982	2143.237222	538.761779
22.722967	10.809886	2419.940556	539.114546
24.098894	9.065790	2587.418889	546.864636
25.129858	10.460522	2737.906667	548.623136
25.539955	10.111202	3046.163889	544.753024
25.823501	9.763156	2842.277222	541.582722
28.719584	10.112476	3072.863333	538.761779
29.341637	9.761926	3106.844444	547.568165
29.893740	8.368423	3684.523333	546.512808
31.137013	9.763156	2271.880000	540.877741
32.494003	8.716557	3745.203889	548.271522
34.697041	9.065790	3915.109444	544.753024
36.955540	9.763156	4245.211667	540.525187
38.267156	9.064648	4611.722222	572.431471
39.988231	9.413880	4689.393333	540.877741
41.577474	8.367369	5055.903889	539.114546
43.164795	9.065790	4987.941667	546.864636
43.942174	8.367369	5201.537222	540.525187
43.920402	9.763156	4856.871667	546.160937
44.447264	9.064648	4970.951111	543.344427
46.687235	9.064648	5327.752778	541.935148
49.075641	8.716557	5580.183889	539.467270
50.432976	8.367369	6004.947778	547.216422
51.724479	8.715459	6068.055556	545.809023
52.097655	8.366314	6308.350556	541.935148
55.338049	8.715459	6109.318333	544.400939
55.858548	8.366314	6703.987778	539.114546
59.655080	8.715459	6339.904444	544.400939
59.769976	8.715459	6941.855556	544.753024
60.644014	8.017213	7177.296111	545.105066
61.931817	9.063505	6679.715556	543.344427
63.478968	8.017213	7288.948333	541.582722
65.309584	7.668156	7616.623333	543.344427
68.384091	8.017213	8012.260556	539.467270
67.784134	8.365259	7873.908889	551.785731
67.433330	8.365259	7548.661111	547.216422
68.741275	8.017213	7568.078889	548.974707
69.678295	8.365259	7587.496667	540.525187
71.131802	8.714360	7628.759444	542.287532
74.851725	8.016202	7995.270000	539.467270
76.803760	8.365259	8225.856111	540.172591
77.032772	8.365259	8116.631111	539.467270
77.316690	8.016202	8873.924444	540.525187
78.773228	9.062363	8305.954444	540.525187
79.813024	8.016202	8677.319444	540.525187
80.917793	8.713262	8359.353333	546.864636
81.495145	8.365259	9116.646667	540.877741
82.051712	8.713262	8667.610556	544.753024
83.290506	9.410321	7888.472222	550.029164
86.083458	7.667188	9327.815000	543.344427
88.668369	9.062363	8878.778889	573.128664
87.986548	8.712162	8672.465000	540.172591
90.386194	8.364204	9230.726111	539.114546
89.218171	9.061220	8296.245556	542.287532
90.096900	8.015191	9218.590000	550.380563
90.743593	8.712162	9233.153333	543.696641
91.191017	7.666221	9886.076111	540.525187
91.059794	8.363149	8922.468889	573.825682
90.430042	9.061220	8728.291111	538.408970
91.323502	8.363149	9293.833889	541.582722
92.304413	8.015191	9788.987222	545.809023
93.310487	8.364204	9373.932222	539.114546
93.412611	8.712162	9138.491667	573.477195
93.319106	8.363149	9038.975556	573.825682
94.981491	8.363149	9483.157222	548.974707
96.550431	9.409133	8184.593333	540.525187
98.135161	8.712162	9383.641111	541.230253
96.974759	8.362093	9543.837778	540.525187
