power (mW)	FWHM	peak value	peak location
0.444205	147.920585	803.410556	542.639873
0.456000	116.855476	825.255556	549.677721
0.484237	131.826014	728.166667	542.992172
0.509283	154.307401	817.973889	539.467270
0.648109	62.907020	805.837778	540.525187
0.831685	140.193709	767.002222	545.457066
1.235886	157.704956	798.556111	545.105066
1.489883	68.273418	800.983333	540.877741
1.965335	101.098614	769.429444	542.287532
2.197823	156.278883	810.692222	547.919865
2.377235	85.218789	786.420000	543.344427
2.809327	143.775748	849.527778	543.696641
3.335773	120.554840	786.420000	538.408970
4.352173	142.070529	871.372778	540.525187
4.491205	106.341204	779.138333	539.467270
4.790715	73.958045	881.081667	540.172591
6.000334	111.794690	878.654444	546.160937
6.535104	153.353926	946.616667	539.467270
7.195937	82.631588	1000.015556	546.512808
7.376184	90.810599	1043.705556	538.761779
8.267908	47.291740	1138.367222	543.344427
9.135419	42.171116	1157.785000	541.230253
9.617743	107.912307	1237.883333	541.230253
10.930663	47.842012	1351.962778	540.877741
11.859303	19.169092	1383.516667	546.160937
12.121343	12.900487	1570.412778	540.525187
13.369464	14.641018	1616.530000	543.696641
14.214362	12.902112	1674.783333	543.344427
16.637068	11.856746	1844.688889	544.400939
16.949405	10.809886	2034.012222	553.190211
17.261060	10.461839	2099.547222	546.864636
18.220566	10.809886	2225.762778	546.864636
18.810286	10.112476	2264.598333	544.753024
19.718038	10.809886	2250.035000	544.400939
21.584599	10.113749	2371.396111	544.048811
22.406404	9.764385	2490.330000	540.877741
23.246497	11.159293	2606.836667	547.568165
25.351246	9.416251	3157.816111	543.344427
26.948689	9.066931	3269.468333	547.216422
29.304164	8.717655	3635.978889	542.639873
31.443533	8.369476	3895.691667	545.809023
32.034770	8.717655	4043.752222	543.696641
34.619552	8.717655	4060.742778	547.568165
35.347199	8.369476	4271.911111	542.287532
36.131260	8.717655	4303.465000	541.230253
38.372810	9.416251	4123.850556	542.639873
39.320786	8.717655	4512.206111	544.753024
40.220486	8.020244	4757.355556	545.809023
44.181482	8.717655	4776.773333	541.582722
45.823048	8.717655	5036.486111	539.819951
46.574909	8.717655	4929.688333	548.974707
46.238054	8.717655	5220.955000	541.935148
49.326611	8.717655	5337.461667	541.230253
49.291365	9.415066	4961.242222	552.488057
49.237255	8.368423	5398.142222	551.434504
52.199572	8.019234	5837.469444	543.696641
54.052184	8.019234	5910.286111	538.761779
55.454600	9.065790	3165.097778	545.105066
55.927775	9.065790	5208.818889	572.082808
57.559990	7.670089	6390.876111	540.877741
59.080014	7.670089	6519.518889	544.400939
60.871650	9.415066	5752.516667	572.082808
60.354004	7.320988	6771.950000	539.467270
61.176565	8.716557	6449.129444	543.344427
63.764926	9.065790	6361.749444	539.114546
64.407187	8.019234	6890.883889	544.048811
65.846174	8.368423	6963.700556	540.525187
67.045726	8.018224	7388.464444	572.431471
67.745065	8.367369	7308.366111	542.639873
69.970464	8.367369	7240.403889	542.287532
70.291491	7.670089	7769.538333	546.160937
72.684495	8.018224	7987.988333	540.172591
74.402641	8.018224	7966.143333	550.731920
77.534763	8.367369	7776.820000	539.114546
77.617329	7.669123	8111.776667	539.819951
78.242331	8.367369	8063.232222	542.287532
78.718974	8.018224	8194.302222	541.582722
78.925330	8.715459	7759.829444	546.160937
80.417800	7.669123	8114.203889	542.639873
81.255211	8.715459	7682.158333	542.992172
82.956965	8.715459	8165.175556	540.877741
82.754175	8.367369	8320.517778	539.467270
83.573002	7.669123	8242.846667	547.216422
83.856954	8.715459	8070.513889	538.761779
86.597607	8.018224	8126.340000	541.230253
85.804163	8.366314	8085.077222	539.819951
87.391881	8.366314	8866.642778	544.400939
87.856214	8.017213	8487.996111	546.512808
88.921325	8.715459	8138.476111	539.819951
89.805209	7.668156	9089.947222	573.128664
91.979830	8.017213	8507.413889	547.216422
92.362985	8.714360	8475.860000	539.114546
91.784905	8.366314	8555.958333	551.434504
91.236229	8.366314	8335.081111	545.457066
91.360010	8.366314	8087.504444	544.048811
92.038140	8.715459	8007.406111	540.877741
93.411375	8.366314	8257.410000	548.974707
93.819464	8.714360	7951.580000	542.639873
93.072949	8.366314	8432.170000	573.128664
93.026959	8.366314	8223.428889	540.525187
