power (mW)	FWHM	peak value	peak location
90.356904	8.388381	14991.333519	565.449891
92.212169	9.087411	14629.677407	565.449891
90.629898	8.737351	14348.119630	565.799385
90.435514	8.735168	12591.619815	566.148836
90.446760	8.736260	13822.221481	566.498243
91.643992	8.736260	13839.212037	566.498243
91.421697	7.688391	13971.900185	566.148836
90.166688	7.340293	17649.141852	565.100353
88.827329	7.340293	17649.141852	565.100353
92.628295	7.689350	17821.474630	565.449891
90.582814	7.338461	14581.132963	565.799385
90.622669	6.988574	15025.314630	566.148836
93.160977	6.639561	17095.735185	566.148836
94.281096	6.290503	20935.600741	565.799385
93.345653	5.940660	22027.850741	566.148836
91.527012	6.290503	20404.848148	565.799385
92.745793	6.290503	22564.266852	565.799385
91.783644	6.640390	24110.407407	565.799385
91.261446	6.291289	23798.104815	565.449891
90.621156	5.591559	25450.234074	565.799385
90.253144	5.940660	26614.491667	565.799385
90.412999	5.940660	27010.937963	565.799385
91.845274	5.940660	25101.523148	565.799385
92.652120	5.590861	28689.766667	566.148836
93.320070	5.238483	52466.026481	567.895435
91.472221	4.888945	56776.773148	567.895435
94.400731	5.936947	56953.960370	567.895435
91.727148	5.238483	53004.869815	567.895435
91.333949	5.936947	55404.583519	567.546203
91.027358	5.936947	54481.430000	567.895435
92.002662	5.587365	57585.847222	567.895435
93.524426	5.936947	53954.722778	567.546203
93.663513	5.937690	49661.775741	567.196927
92.238688	5.938433	44800.858704	567.196927
92.357176	5.938433	48100.262778	566.847607
92.259265	6.289718	45418.182222	566.148836
93.235768	6.639561	39984.440741	565.799385
91.506418	6.989447	39431.843148	565.799385
93.030691	6.989447	41121.189815	565.799385
92.757976	6.989447	41141.416667	565.799385
91.023126	6.640390	46062.205185	565.449891
91.713428	6.640390	48228.905556	565.449891
88.791654	6.291289	38888.145370	565.449891
90.232707	6.291289	47871.294815	565.449891
86.819072	6.640390	46800.080741	565.449891
86.606899	6.291289	47796.860000	565.449891
81.566343	6.291289	43348.570741	565.100353
76.790486	6.291289	42238.521111	565.100353
72.868005	6.291289	37391.358333	565.449891
70.167513	6.641219	34252.150926	565.100353
65.366831	6.641219	32494.842037	565.100353
64.121530	6.991192	32663.129444	565.100353
66.617865	6.991192	37269.997222	565.100353
66.792814	7.340293	38512.735000	565.100353
65.856782	7.340293	39717.446296	565.100353
66.244067	6.991192	46576.776296	564.750771
66.843547	6.991192	45379.346667	565.100353
67.468581	6.991192	50849.496481	564.750771
68.668684	6.991192	58593.144444	564.750771
61.171141	6.642047	50961.957778	564.750771
53.582387	6.992064	35940.688519	564.750771
52.970921	7.341209	38603.351296	564.750771
52.558433	6.642875	44976.427778	564.401146
52.157574	6.992064	42976.396667	564.401146
50.348311	6.992936	40433.476852	564.401146
48.240245	6.992064	37426.148519	564.401146
45.346495	6.642875	34947.954630	564.401146
44.249659	6.643703	31040.935926	564.051477
44.401514	6.643703	42341.273519	564.051477
45.666646	6.294427	44484.510741	564.051477
46.114047	5.944367	52496.771296	564.051477
45.640135	6.993807	48724.058889	564.051477
45.073856	6.643703	49892.361852	564.051477
42.371862	6.294427	43397.924259	563.701765
39.978384	6.295211	45486.953519	563.701765
39.623128	6.645358	46095.377222	563.352009
39.376633	5.945848	48989.435185	563.352009
39.467056	6.646186	58369.030926	563.352009
36.893474	6.296779	57847.178148	563.002209
33.465718	6.296779	57847.178148	563.002209
29.917189	6.296779	31340.293333	563.002209
26.353198	7.345783	19523.766481	563.002209
24.909867	6.647012	18594.140370	562.652366
24.237711	6.647012	19637.036852	562.652366
29.340421	6.647012	36544.257778	562.652366
29.109564	5.947328	44301.660000	562.652366
29.143147	6.297562	46955.422963	562.652366
28.941091	6.647839	58506.573519	562.302480
28.956746	7.697018	65251.015000	562.302480
29.441936	8.046381	65535.000000	562.652366
25.426157	6.648665	55745.203704	562.302480
22.977352	6.649491	55014.609815	561.602576
21.287684	6.299910	38136.515556	561.252560
21.209073	5.949546	39660.811111	561.602576
20.270202	6.649491	31961.662222	561.602576
19.043978	5.949546	27153.335000	561.602576
17.152098	7.698931	24959.126111	561.952550
16.655838	7.347611	29998.039444	562.652366
16.461228	5.949546	19177.482778	561.602576
15.071886	4.550783	12514.757778	560.902499
14.811268	5.250903	9788.987222	561.252560
13.360857	6.300692	4896.516296	560.902499
13.189528	6.999899	4640.039815	561.252560
11.909140	17.473551	2707.970926	560.902499
30.276822	6.299127	45297.630185	561.952550
