power (mW)	FWHM	peak value	peak location
-0.164894	109.722341	930.111556	541.582722
-0.169190	133.958858	956.811000	540.172591
-0.160560	37.721092	963.121778	543.344427
-0.145674	118.430900	951.956556	551.434504
-0.126437	125.950578	957.781889	543.696641
-0.097363	102.518933	963.121778	539.467270
-0.092129	150.688104	914.577333	542.287532
-0.036521	46.867600	947.587556	547.919865
-0.019545	54.341522	903.412111	538.761779
0.017098	26.571202	968.947111	542.639873
0.041156	53.189760	944.189444	547.216422
0.122745	69.071119	968.947111	541.230253
0.202802	134.207466	933.024222	543.344427
0.208399	159.724717	942.247667	538.761779
0.288720	77.615224	932.053333	538.056118
0.417835	38.065978	984.966778	547.216422
0.420835	19.397471	946.131222	538.408970
0.614355	151.924369	938.364111	540.172591
0.705948	16.780060	922.344444	541.230253
0.756466	68.192905	926.713444	540.877741
0.802096	13.418282	934.480556	551.785731
0.961792	127.849190	925.742556	542.992172
1.107519	29.144490	924.771667	539.819951
1.177654	138.632640	946.616667	540.877741
1.302001	147.061516	941.762222	544.400939
1.465689	77.910764	954.383778	542.992172
1.513836	89.676770	1071.861333	543.696641
1.669994	8.717655	1342.253889	541.935148
1.829475	6.276320	1795.659000	544.400939
1.921467	5.928009	2150.033444	539.467270
2.132375	5.230597	3031.115111	540.877741
2.301488	4.881583	3101.504556	539.467270
2.338204	4.881583	3657.338444	542.287532
2.599362	4.881583	4862.697000	539.467270
2.780870	4.532614	5138.914889	539.819951
2.847682	4.532614	5637.951778	553.541223
2.928178	4.532614	6556.898111	544.400939
3.263369	4.532614	7809.830222	543.344427
3.259775	4.532614	7822.451778	538.761779
3.489207	4.532614	9696.752778	539.819951
3.793858	4.183688	10571.038222	543.344427
3.903617	4.183688	10773.468556	547.216422
3.913153	4.880968	10914.732889	546.160937
4.110952	4.880968	12550.680667	548.271522
4.463549	4.880968	13871.089556	538.761779
4.594968	4.532042	15836.654111	545.457066
4.687714	4.532042	16218.213444	540.525187
4.909312	4.532042	17907.074667	547.919865
5.081690	4.532042	18854.176778	543.344427
5.455226	4.532042	20279.441667	542.287532
5.440065	4.532042	20201.285111	540.172591
5.714918	4.532042	21934.321778	540.525187
5.929953	4.532042	21839.660111	540.877741
6.112474	4.532042	22802.781889	542.287532
6.208527	4.532042	24884.367667	572.780089
6.337868	4.532042	25735.837222	572.780089
6.547950	4.532042	28319.372556	539.819951
6.943761	4.532042	28762.097889	543.344427
6.847427	4.183160	31308.739444	542.639873
7.184094	4.183160	32454.388333	543.344427
7.247348	3.834322	32887.404778	572.780089
7.674925	4.532042	34673.354889	541.230253
7.699629	4.532042	34705.879667	543.344427
7.985293	4.183160	38627.299889	542.992172
8.092073	4.183160	37472.427556	540.172591
8.367150	4.183160	41742.396889	540.172591
8.534096	4.183160	41448.217556	540.172591
8.558970	4.183160	40926.850222	545.457066
8.739443	4.183160	43255.041778	572.780089
8.901400	4.183160	44673.025000	540.877741
9.436027	4.880353	43141.447778	572.780089
9.230162	4.183160	46458.004222	540.877741
9.632171	4.183160	47013.352667	544.400939
9.389286	4.531471	47312.386444	541.582722
9.812291	4.531471	48042.009444	543.344427
9.963801	4.183160	50923.122222	546.512808
10.069888	4.531471	50692.050667	572.780089
10.151808	4.531471	50393.987778	541.230253
10.344278	4.531471	52628.488556	539.467270
10.605860	4.531471	54812.988556	545.809023
10.517503	4.531471	53878.508000	540.525187
10.756612	4.531471	54807.648667	572.780089
10.807143	4.531471	53063.932222	544.048811
10.860068	4.531471	54156.667667	539.467270
11.288691	4.531471	56003.298333	542.992172
11.219686	4.531471	57547.497111	545.105066
11.390041	4.531471	58057.699222	541.230253
11.217615	4.531471	56514.956778	543.344427
11.486493	4.531471	58409.646444	543.344427
11.619638	4.531471	58059.641000	539.819951
11.784629	4.531471	58950.431556	543.344427
11.981182	4.531471	59221.309556	543.696641
11.981312	4.531471	59970.350333	539.819951
11.809795	4.880353	58085.369556	538.761779
11.882477	4.531471	60444.144111	542.639873
11.771696	4.531471	60644.147222	539.819951
12.099880	4.531471	61864.554556	573.128664
12.230100	4.531471	60293.656333	544.753024
12.273442	4.880353	60373.269222	572.780089
12.267979	4.880353	60194.140222	541.230253
12.386854	4.880353	60324.239333	572.780089
12.328159	4.880353	59849.960111	541.230253
12.168591	4.880353	59211.600667	572.780089
12.193178	4.531471	55265.422778	542.287532
12.329377	4.880353	62037.858222	572.780089
