power (mW)	FWHM	peak value	peak location
0.074303	99.719849	88.836333	0.000000
0.105132	33.080618	84.467333	0.000000
0.109920	98.055056	80.098333	0.000000
0.168731	9.793762	86.894556	0.000000
0.210723	38.637177	74.758444	0.000000
0.258311	38.169957	75.243889	0.000000
0.324749	43.416052	92.719889	0.000000
0.357267	40.966211	109.225000	0.000000
0.467176	18.861989	119.419333	0.000000
0.502161	17.763769	120.390222	0.000000
0.585101	10.120107	134.468111	0.000000
0.661195	19.533602	160.196667	0.000000
0.774169	30.329416	166.507444	0.000000
0.859421	24.066604	177.672667	0.000000
0.936223	19.200457	181.556222	0.000000
1.096831	15.372899	201.944889	0.000000
1.146996	20.931474	220.877222	0.000000
1.258205	22.335300	240.780444	0.000000
1.348611	22.335300	265.538111	0.000000
1.475838	18.857267	274.761556	0.000000
1.605353	18.158857	309.228111	0.000000
1.720987	18.161131	363.597889	565.449891
1.887248	14.322067	396.608111	565.449891
2.118198	12.573122	516.998333	564.750771
2.072985	13.273286	531.561667	564.750771
2.364738	10.481542	545.639556	564.750771
2.474806	8.737351	755.837000	564.401146
2.629363	6.293643	1094.677222	564.401146
2.714115	5.245030	1428.663000	564.051477
2.845547	5.245030	1568.471000	564.051477
2.920867	4.895667	2188.869000	564.051477
3.127815	4.895667	2910.724889	564.051477
3.337438	4.546260	3294.711444	564.051477
3.490226	4.546260	3976.275444	564.051477
3.723886	4.546260	4128.219556	564.051477
3.957897	4.196809	4888.911000	563.701765
4.018278	4.196809	6277.282111	563.701765
4.405846	4.196809	7416.134778	563.701765
4.386774	4.197331	7753.033222	563.352009
4.671739	4.197331	9022.470444	563.352009
4.840584	4.197331	9661.315333	563.352009
5.154373	4.547392	9866.172889	563.002209
5.070547	4.547392	10020.058778	563.002209
5.386392	4.197854	10683.175889	563.002209
5.532476	4.547957	11088.036556	563.002209
5.876045	4.547957	11418.138778	562.652366
6.120562	4.198376	12162.325111	562.652366
6.101325	4.198376	11606.005778	562.652366
6.440271	4.548523	11710.861778	562.652366
6.505559	4.548523	11715.716222	562.652366
6.745756	4.548523	11630.278000	562.652366
6.921644	4.548523	11630.278000	562.652366
7.062242	4.548523	11501.149778	562.302480
7.386820	4.898714	10853.081444	562.302480
7.577055	4.548523	10480.260111	562.302480
7.789629	4.548523	9092.374444	562.652366
7.969625	4.548523	9327.815000	562.652366
8.384722	4.548523	9156.453111	562.302480
8.460026	4.548523	8908.391000	562.652366
8.568817	4.548523	8333.624778	562.652366
8.868775	4.548523	8238.477667	562.652366
9.092612	4.548523	8264.206222	562.652366
9.031551	4.548523	7714.197667	562.302480
9.261201	4.898105	7319.045889	562.652366
9.633058	4.898105	7248.171000	562.652366
9.665382	4.898105	6917.097889	562.652366
9.872943	4.898105	6926.806778	562.652366
9.906015	4.898105	6355.438667	562.652366
10.014491	5.247643	5894.266444	562.652366
10.307107	5.247643	5871.450556	563.002209
10.385799	5.247643	5912.713333	563.002209
10.661470	4.897496	5749.118556	563.002209
10.668358	5.246990	5332.121778	563.002209
10.797931	5.246990	5223.382222	563.002209
10.912113	5.246990	5209.304333	563.002209
11.178335	5.246990	5154.934556	563.002209
11.231885	5.246990	4575.313889	563.002209
11.334380	5.246990	5086.001444	563.002209
11.676539	5.246990	5100.564778	563.002209
11.748656	5.246990	4494.730111	563.002209
11.665320	5.246990	4496.186444	563.002209
11.760125	5.246990	4401.039333	563.002209
11.758189	5.246990	4183.074778	563.002209
11.845106	5.946588	4027.247111	563.002209
12.034185	5.596441	3958.314000	563.002209
12.144733	6.295995	3705.397444	563.352009
12.051324	6.295995	3750.058333	563.352009
12.051403	6.295995	3482.578444	563.352009
12.123574	6.645358	3552.967889	563.352009
12.351625	6.645358	3610.250333	563.352009
12.676480	6.994678	3373.838889	563.352009
12.724801	6.295211	3441.315667	563.352009
12.767470	6.644531	3558.793222	563.352009
12.668405	6.644531	3248.108778	563.352009
12.595153	6.993807	3286.458889	563.352009
12.587643	6.993807	3084.028556	563.701765
12.675229	7.343040	3057.329111	563.701765
12.693013	7.343040	2964.123778	563.701765
12.839726	7.343040	2951.016778	563.701765
12.566738	8.041373	2642.274111	563.701765
12.519253	8.739531	2551.981444	563.701765
12.753468	9.088545	2495.669889	563.701765
12.687830	8.390474	2491.786333	563.701765
12.609689	8.041373	2493.242667	563.701765
12.745095	9.437515	2404.406333	563.701765
