power (mW)	FWHM	peak value	peak location
-0.035887	40.359585	172.332778	0.000000
-0.038008	98.690474	165.051111	0.000000
-0.039813	32.615538	155.342222	0.000000
-0.040040	30.706980	225.731667	0.000000
-0.034498	116.834026	160.196667	0.000000
-0.032655	16.093717	201.459444	0.000000
-0.016678	90.272020	194.177778	0.000000
-0.015008	21.683368	169.905556	0.000000
-0.018613	86.004560	167.478333	0.000000
-0.015394	86.004560	167.478333	0.000000
-0.009628	86.361068	167.478333	0.000000
0.016890	39.952907	172.332778	0.000000
0.040497	83.868926	213.595556	0.000000
0.042490	38.700695	194.177778	0.000000
0.071466	10.459205	225.731667	0.000000
0.094129	4.193146	242.722222	0.000000
0.117693	11.448941	245.149444	0.000000
0.120236	29.676927	233.013333	0.000000
0.162781	56.298442	271.848889	0.000000
0.204923	13.961378	279.130556	0.000000
0.209181	23.984486	310.684444	0.000000
0.237149	29.572291	305.830000	0.000000
0.272962	39.430311	327.675000	0.000000
0.279377	20.177600	344.665556	0.000000
0.338959	40.919289	385.928333	0.000000
0.362142	19.866142	376.219444	0.000000
0.393583	18.131513	398.064444	0.000000
0.419979	27.880387	407.773333	579.047698
0.479786	49.540186	415.055000	572.780089
0.498670	17.049869	500.007778	572.431471
0.549068	27.135259	485.444444	574.522524
0.587312	23.345484	487.871667	569.989910
0.662661	30.641231	524.280000	574.870879
0.695515	26.126349	572.824444	574.522524
0.741126	40.679045	572.824444	574.522524
0.780943	35.143111	611.660000	565.449891
0.849958	38.637177	640.786667	565.449891
0.888095	39.978621	560.688333	569.291927
0.954274	50.336372	691.758333	572.431471
0.993857	43.098978	720.885000	569.291927
1.050417	31.353460	842.246111	563.002209
1.100362	32.046132	866.518333	563.352009
1.180469	27.544041	1133.512778	562.302480
1.247992	21.637332	1245.165000	562.652366
1.266810	24.757942	1276.718889	562.652366
1.373322	14.327439	1599.539444	562.652366
1.404347	7.696060	2043.721111	562.302480
1.487334	6.997290	2186.927222	562.302480
1.516135	6.647012	2383.532222	562.302480
1.550221	5.948067	2686.935000	562.302480
1.656389	6.298345	2966.065556	562.302480
1.688113	5.948067	2980.628889	562.302480
1.786300	5.948807	3524.326667	561.952550
1.773001	5.948067	3555.880556	562.302480
1.943815	5.248948	4568.032222	562.302480
1.944025	5.248948	4927.261111	562.302480
2.033101	5.248948	6225.825000	562.302480
2.090274	5.248948	6240.388333	561.952550
2.125260	5.248948	6672.433889	561.952550
2.269316	5.248948	7128.751667	561.952550
2.258590	5.599225	7004.963333	561.952550
2.324310	5.248948	8917.614444	561.952550
2.417849	5.248948	9706.461667	561.952550
2.445092	5.248948	10024.427778	561.952550
2.586246	4.899322	11616.685556	561.952550
2.636189	4.899322	11123.959444	561.952550
2.697941	4.899322	11551.150556	561.952550
2.717277	5.248948	11548.723333	561.952550
2.815433	4.899322	13250.206111	561.952550
2.810386	4.899322	13529.336667	561.952550
2.889842	4.899322	15784.226111	561.952550
2.927646	4.899322	15837.625000	561.952550
3.028813	4.899322	16094.910556	561.952550
3.046117	4.899322	16019.666667	561.952550
3.026361	4.899322	17014.827778	561.952550
3.156400	4.899322	18968.741667	561.952550
3.135058	4.899322	18767.282222	561.952550
3.164138	4.899322	18012.416111	561.952550
3.207211	4.899322	18323.100556	561.952550
3.312396	4.899322	18973.596111	561.952550
3.376582	4.899322	16951.720000	561.952550
3.553779	4.899322	20354.685556	561.952550
3.508359	4.899322	19861.959444	561.952550
3.677430	4.899322	22286.754444	561.952550
3.665560	4.899322	18922.624444	561.952550
3.713904	4.899322	19230.881667	561.952550
3.707821	4.899322	21194.504444	561.952550
3.739476	4.899322	20946.927778	561.952550
3.761635	4.899322	18701.747222	561.952550
3.809175	5.248948	18876.507222	561.952550
3.810783	4.899322	20660.515556	561.952550
3.921247	4.899322	21818.300556	561.952550
3.899278	4.899322	22626.565556	561.952550
3.928639	4.899322	21437.226667	561.952550
3.929973	4.549088	20784.303889	561.952550
3.959658	4.899322	19206.609444	562.302480
4.112030	5.248948	21408.100000	561.952550
4.002938	5.248948	21408.100000	561.952550
4.007765	4.898714	19357.097222	562.302480
4.022639	5.248948	21344.992222	561.952550
4.031142	4.549088	22063.450000	561.952550
4.060794	4.899322	20568.281111	561.952550
4.053749	5.248948	18279.410556	562.302480
4.118375	4.898714	18211.448333	562.302480
4.111007	4.898714	17827.947222	562.302480
