power (mW)	FWHM	peak value	peak location
-0.810560	124.003269	895.645000	539.467270
-0.778455	163.702708	862.634778	543.344427
-0.786016	48.573442	888.848778	542.287532
-0.778663	131.389457	883.023444	545.105066
-0.764544	147.117471	900.014000	539.819951
-0.346156	85.625662	877.683556	542.639873
-0.229582	110.698444	889.334222	541.582722
-0.021844	138.650959	876.227222	552.136916
0.443428	139.691704	901.955778	540.172591
0.606536	151.353960	848.071444	543.344427
1.077463	143.369755	882.052556	540.172591
1.350449	137.025383	893.703222	548.271522
1.774358	97.234165	914.577333	539.467270
2.102794	119.219725	971.374333	542.287532
2.773618	149.289264	1048.560000	539.114546
3.283792	96.143246	1123.318444	581.828709
4.252063	76.710454	1227.689000	540.172591
4.301561	67.754122	1225.747222	553.892193
5.252274	59.512686	1395.167333	538.056118
5.809719	55.018629	1489.829000	540.172591
6.652100	48.841066	1599.539444	539.114546
7.513937	47.455600	1726.240444	546.864636
8.865123	42.977699	1871.388333	539.114546
8.752447	42.983231	1843.232556	541.935148
10.297909	39.188021	2120.421333	543.696641
11.406884	37.121625	2254.889444	541.935148
12.553281	36.423117	2406.833556	539.467270
12.572224	34.695424	2402.464556	540.525187
14.847394	32.622132	2759.266222	541.230253
15.809658	31.237999	2880.141889	539.819951
16.010624	30.888942	2901.986889	542.992172
17.369334	29.849682	3160.728778	543.344427
18.536096	28.465005	3370.926222	539.114546
19.767296	27.774307	3609.764889	541.230253
20.945610	27.079965	3707.339222	541.582722
22.304462	26.731083	3839.865556	542.992172
23.635923	25.348968	4069.966222	543.344427
24.235725	25.003327	4271.425667	540.525187
25.422916	25.348968	4347.640444	546.864636
25.961013	22.922681	4737.452333	546.512808
28.389739	22.573930	5177.265000	542.639873
29.517283	22.919751	5307.849556	543.696641
31.121139	21.882154	5634.553667	541.230253
33.281111	21.533447	5765.138222	539.819951
34.616676	21.533447	5950.092556	542.287532
34.336509	21.533447	6080.677111	580.438558
35.206707	21.879358	6160.775444	543.344427
35.775868	21.184785	6684.084556	580.786162
40.015599	20.144210	7280.695778	539.114546
41.654118	19.798165	7411.765778	538.408970
42.093660	20.144210	7509.340111	540.525187
43.506002	20.144210	7614.196111	581.481238
44.814065	19.795635	8084.106333	542.639873
45.131011	19.101059	8180.709778	542.992172
47.662698	19.793105	7396.231556	542.287532
49.236544	19.795635	8412.752222	542.992172
50.261392	18.752573	9230.726111	543.344427
52.756731	19.098618	9222.473556	543.344427
53.436855	19.098618	9301.601000	541.230253
55.281073	18.750175	9874.910889	539.114546
56.495805	18.055731	10389.967444	542.287532
57.664954	18.401776	10588.514222	583.565400
60.896182	17.707376	11441.925556	544.400939
62.148032	18.401776	11055.997222	583.565400
63.197217	18.747776	10971.529889	583.912605
65.295982	18.053421	11611.831111	538.761779
65.791395	18.399421	11631.248889	544.048811
67.757396	17.356843	12285.628000	539.114546
68.021629	18.051110	11842.417222	546.160937
68.818096	18.051110	12074.459667	542.639873
69.682982	17.356843	12706.993778	540.172591
70.820275	17.008621	12923.502000	544.400939
73.008603	17.702844	12951.657778	541.582722
74.240980	17.008621	13419.626222	539.114546
74.816842	16.660442	13579.337444	545.809023
77.845664	16.660442	13803.612778	542.992172
77.394489	17.006442	14054.102111	544.753024
78.042520	17.006442	14562.847889	543.344427
78.837641	16.658308	15012.854889	545.457066
80.876823	16.658308	15054.117667	542.639873
82.358591	15.964217	15546.358333	539.819951
83.173583	15.616171	16023.550222	585.647964
82.896396	15.962171	15768.206444	539.467270
82.231330	17.004263	15061.884778	585.994902
85.370683	16.656173	15866.266222	544.400939
84.419811	15.614169	16558.024556	585.994902
87.581812	15.614169	16974.050444	541.230253
88.454868	16.656173	16052.191444	541.582722
89.059999	16.656173	16427.440000	540.877741
89.083697	15.960124	16694.919889	544.048811
89.639205	16.308126	16756.571333	586.341796
88.805053	15.960124	17032.789222	586.688646
90.436655	15.960124	17002.691667	545.457066
91.672054	16.306035	16655.598889	539.114546
93.334388	15.612166	17358.037000	539.114546
93.411663	15.612166	17978.920444	586.688646
93.655475	15.958077	18082.320111	586.688646
92.908520	15.958077	17505.126667	542.639873
92.775713	15.610163	16214.329889	545.105066
93.246031	15.610163	17727.460222	539.467270
93.452861	15.610163	18112.417667	547.919865
93.073999	15.262293	18061.931444	541.582722
94.578779	15.958077	17967.755222	541.935148
95.438737	16.651900	17725.518444	542.287532
