power (mW)	FWHM	peak value	peak location
3.247003	147.335026	941.762222	549.326236
3.247756	141.754837	944.189444	543.696641
3.221208	109.319535	842.246111	540.877741
3.213298	112.046286	890.790556	540.877741
3.190304	83.225616	868.945556	540.525187
3.207489	42.570490	1014.578889	543.696641
3.159733	81.895393	878.654444	541.230253
3.162452	81.895393	878.654444	541.230253
3.180490	137.209232	893.217778	541.935148
3.188778	73.868543	934.480556	541.582722
3.187297	122.946083	905.353889	542.992172
3.190330	56.284082	919.917222	541.935148
3.178965	114.437800	985.452222	539.114546
3.176603	56.110834	915.062778	552.488057
3.219269	50.062995	910.208333	541.582722
3.221577	109.613936	910.208333	539.114546
3.224151	61.096972	939.335000	547.216422
3.212077	121.360446	915.062778	538.761779
3.170184	41.593964	929.626111	538.761779
3.129242	61.522453	958.752778	553.190211
3.116277	153.165954	953.898333	549.677721
3.115199	96.242987	968.461667	539.114546
3.176010	111.725292	1012.151667	542.992172
3.135033	38.421932	1145.648889	540.877741
3.146013	92.408240	1046.132778	540.877741
3.144990	86.455382	1165.066667	541.935148
3.091334	146.903921	1230.601667	544.048811
3.077507	146.903921	1230.601667	544.048811
3.178560	33.993137	1388.371111	543.344427
3.184342	13.977118	1584.976111	539.819951
3.184208	9.787662	1730.609444	538.761779
3.147486	7.690310	1902.942222	542.639873
3.142997	7.690310	1902.942222	542.639873
3.180203	5.243723	3271.895556	541.582722
3.190124	6.642047	2878.685556	539.819951
3.166054	6.642047	2878.685556	539.819951
3.165388	6.293643	2932.084444	546.864636
3.177654	6.293643	2980.628889	541.582722
3.132967	5.944367	2601.982222	546.512808
3.157047	38.870292	1322.836111	544.753024
3.213110	119.480071	1012.151667	539.819951
3.223318	132.444557	968.461667	542.287532
3.224566	160.504309	919.917222	548.623136
3.250314	106.764770	939.335000	548.271522
3.291168	96.294549	958.752778	554.243119
3.290565	115.907124	932.053333	548.974707
3.260355	97.053566	953.898333	550.380563
3.152371	110.187646	924.771667	539.467270
3.134899	106.134944	1031.569444	542.639873
3.105430	6.992064	2286.443333	547.568165
3.101821	6.292858	2368.968889	551.434504
3.087313	8.389428	1834.980000	541.230253
3.212543	8.389428	1834.980000	541.230253
3.160891	39.501816	1177.202778	541.935148
