power (mW)	FWHM	peak value	peak location
-0.116207	37.248368	883.994333	551.434504
-0.114747	101.071835	870.401889	552.136916
-0.112480	159.724717	880.110778	541.230253
-0.097920	53.022748	915.548222	542.287532
-0.076670	148.963115	887.392444	541.230253
-0.068147	136.407145	871.372778	539.819951
-0.043964	133.008395	903.897556	540.877741
-0.026885	116.426600	897.101333	542.992172
0.028160	150.346032	869.916444	540.172591
0.084143	132.936839	887.877889	539.114546
0.082037	160.130031	903.412111	566.847607
0.155492	158.185027	995.161111	566.498243
0.209937	142.807952	1108.755111	538.761779
0.290929	60.086255	1249.048556	541.230253
0.357690	49.730875	1330.603222	564.750771
0.412445	42.803094	1476.236556	542.287532
0.479900	32.066370	1758.279778	544.400939
0.549847	32.066370	1805.853333	541.582722
0.714475	33.794117	1868.475667	540.877741
0.819521	34.140341	1996.147556	544.048811
0.850682	35.870790	1993.234889	544.400939
0.982863	29.975143	2264.598333	544.048811
1.189501	29.967579	2467.028667	543.344427
1.257677	32.050182	2271.394556	542.639873
1.412053	30.317943	2332.075111	544.753024
1.398588	31.357421	2326.249778	542.992172
1.646161	28.924051	2610.720222	543.696641
1.620652	27.880387	2672.857111	542.992172
1.798086	28.573773	2729.168667	540.877741
1.916965	25.448924	3127.233111	539.819951
2.063562	26.142845	3129.660333	541.230253
2.264939	23.015903	3771.903333	539.114546
2.389004	21.623741	4246.182556	540.172591
2.536355	21.273637	4300.552333	541.230253
2.741037	20.926210	4427.738778	541.582722
2.888300	20.926210	4519.002333	540.877741
2.891319	20.578738	4613.178556	567.895435
3.104873	19.533602	5208.818889	538.761779
3.458368	18.488333	5774.361667	567.895435
3.466122	17.792903	5505.425444	541.935148
3.797423	17.095148	6822.921667	540.525187
3.913755	16.399453	7287.492000	567.895435
4.153606	16.397393	7425.843667	544.400939
4.264574	16.397393	7697.207111	567.895435
4.433137	16.047506	7951.094556	541.935148
4.689285	15.699637	8455.471333	538.761779
4.763474	15.699637	8751.107000	538.408970
5.031933	15.001880	8891.400444	541.582722
5.086526	15.001880	9250.629333	539.467270
5.087244	15.001880	9600.149333	544.400939
5.594984	14.652080	10327.830556	542.992172
5.792072	14.652080	10691.913889	542.639873
5.818451	14.999994	10471.036667	568.593768
6.170948	14.650238	10959.393778	540.525187
6.219954	15.347864	10694.341111	568.942870
6.520179	15.347864	11034.152222	540.877741
6.472207	14.998108	11365.225333	568.942870
6.726343	14.998108	11626.879889	541.582722
6.783400	14.998108	11883.680000	569.291927
7.160099	13.952612	13365.256444	539.114546
7.379149	14.300526	13265.254889	540.172591
7.404797	14.648396	12966.706556	543.344427
7.571108	14.648396	13502.637222	541.230253
7.693799	14.648396	14173.521444	569.291927
8.243126	14.300526	14974.019333	543.696641
8.383628	14.648396	13254.575111	539.114546
8.476850	15.345933	12843.403667	539.819951
8.594135	13.952612	14714.306556	569.291927
8.682439	14.300526	15235.673889	540.525187
8.863759	14.300526	15319.655778	569.640940
9.008506	13.602943	16575.500556	569.291927
9.133799	13.952612	16510.451000	569.291927
9.488874	13.602943	17215.801778	541.230253
9.725134	13.950857	17401.727000	569.640940
9.693522	13.950857	17084.246333	541.582722
9.546538	13.949101	17418.717556	541.230253
10.165538	14.298727	17414.834000	569.989910
10.152056	14.298727	17530.855222	569.989910
10.402650	14.298727	17900.763889	544.400939
10.664221	13.949101	18566.308222	569.989910
10.404898	13.949101	19183.793556	540.877741
10.907050	14.296927	19016.315222	569.989910
10.868190	15.342070	15687.137222	570.338836
10.968734	15.342070	17699.789889	569.989910
11.002422	15.342070	17190.073222	542.992172
11.074959	14.644708	18385.722889	545.105066
11.436721	14.644708	19369.718778	540.172591
11.732632	15.689763	17082.790000	570.338836
11.837576	15.342070	18053.678889	542.287532
11.931148	14.644708	19668.267111	570.338836
11.780160	14.644708	19416.321444	542.287532
11.536010	14.992445	19098.840778	540.172591
11.606629	14.992445	19062.432444	541.582722
11.823495	14.992445	19642.538556	570.338836
11.980387	14.642864	19982.835111	541.582722
11.808216	15.687787	19247.386778	570.687718
11.967576	15.687787	19095.928111	570.687718
11.954872	15.687787	19104.180667	541.935148
11.970766	14.990556	19628.946111	542.992172
12.006662	16.035391	18616.309000	544.048811
11.781721	16.382951	18310.479000	540.525187
11.949951	16.035391	18966.314444	570.687718
11.837038	15.685809	18289.119444	542.992172
12.223312	16.035391	18478.928222	570.687718
12.142331	16.035391	19160.492222	570.687718
