power (mW)	FWHM	peak value	peak location
0.158166	103.326785	174.760000	0.000000
0.165521	117.731179	177.187222	0.000000
0.165728	124.248488	165.051111	0.000000
0.227684	42.981272	184.468889	0.000000
0.252868	56.766837	174.760000	0.000000
0.346044	129.049559	189.323333	0.000000
0.385104	121.760893	191.750556	0.000000
0.409595	42.949027	194.177778	0.000000
0.531147	112.919935	160.196667	0.000000
0.569236	38.671414	157.769444	0.000000
0.803388	38.671414	157.769444	0.000000
1.106850	113.901769	199.032222	0.000000
1.374167	113.901769	199.032222	0.000000
1.381176	34.753867	184.468889	0.000000
1.422455	47.341713	165.051111	0.000000
1.650365	27.179962	179.614444	0.000000
1.731260	41.190313	201.459444	0.000000
1.914975	54.337530	177.187222	0.000000
2.052344	34.512644	191.750556	0.000000
2.509134	7.680699	247.576667	0.000000
2.646643	101.467132	194.177778	0.000000
3.025241	37.703434	228.158889	0.000000
3.409602	15.374820	203.886667	0.000000
3.629323	15.374820	203.886667	0.000000
3.976496	85.875337	220.877222	0.000000
4.162917	21.951745	257.285556	0.000000
4.492882	21.951745	257.285556	0.000000
4.887298	10.843765	291.266667	0.000000
5.266314	7.350349	274.276111	0.000000
5.790888	7.350349	274.276111	0.000000
6.671651	12.585695	334.956667	0.000000
6.948612	11.526088	361.656111	0.000000
7.304106	9.433980	334.956667	0.000000
7.795102	23.695414	364.083333	0.000000
7.982561	12.215447	378.646667	0.000000
8.043617	17.467002	359.228889	0.000000
8.626885	12.528844	378.646667	0.000000
9.517634	22.349306	378.646667	567.895435
9.519857	22.349306	378.646667	567.895435
9.791409	16.741007	376.219444	566.148836
10.715115	21.292355	441.754444	566.847607
11.131735	29.643404	453.890556	0.000000
12.138212	29.643404	453.890556	0.000000
12.628788	10.827539	509.716667	568.593768
12.992403	21.276314	478.162778	567.895435
14.101351	9.078325	810.692222	567.546203
14.384070	18.154307	708.748889	567.895435
14.802493	15.359433	555.833889	568.593768
14.834755	8.031331	1002.442778	567.895435
15.937188	8.031331	1002.442778	567.895435
16.187018	8.378943	1201.475000	567.895435
17.358822	8.378943	1201.475000	567.895435
17.512984	5.237827	2288.870556	567.895435
17.504311	6.981580	1436.915556	567.895435
17.818457	6.983330	1686.919444	567.895435
18.664949	6.983330	1686.919444	567.895435
18.894243	5.936204	2364.114444	567.895435
19.068315	8.381043	1313.127222	568.244624
19.489512	8.381043	1313.127222	568.244624
19.758910	4.888945	4936.970000	567.895435
20.236655	3.841074	4179.676667	568.244624
22.029468	6.284998	3092.281111	568.244624
21.683829	4.190525	5703.972222	567.895435
21.934634	5.586666	2548.583333	567.895435
22.250238	4.539451	5194.255556	567.895435
23.639194	5.587365	4631.140000	567.895435
24.195953	5.587365	3849.574444	567.895435
24.755077	4.539451	7296.230000	567.895435
24.942059	4.888333	4718.520000	567.895435
24.830781	4.888945	6937.001111	567.895435
24.994516	4.539451	7111.761111	567.895435
25.682892	5.237827	7288.948333	567.895435
26.113311	4.539451	8866.642778	567.895435
26.473310	4.888945	10335.112222	567.895435
26.741118	4.539451	8264.691667	568.244624
27.198948	4.888333	8599.648333	568.244624
28.283754	4.190000	7080.207222	568.244624
28.466222	5.237827	7524.388889	567.895435
28.918362	4.190000	9997.728333	568.244624
29.263601	4.539451	13840.021111	568.244624
29.919364	4.538882	12213.782222	568.244624
31.004793	4.888945	18182.321667	567.895435
31.323168	4.888333	13145.835556	568.244624
31.726956	4.888333	13898.274444	568.244624
31.643009	4.538882	14988.097222	568.244624
31.695943	4.538882	14988.097222	568.244624
32.769929	4.888333	22864.433333	568.244624
32.434208	4.888333	18046.397222	568.244624
32.469237	4.190000	22667.828333	568.244624
32.668700	3.840593	30451.930000	568.244624
33.065890	4.888333	31352.429444	568.244624
32.666336	4.888333	37587.963333	568.244624
33.240444	3.840593	35240.839444	568.593768
33.770152	5.587365	36920.477222	567.895435
33.658457	4.538882	36061.240556	568.244624
33.529272	4.189475	37362.231667	568.593768
33.052359	4.538882	28971.324444	568.593768
33.120017	4.189475	41694.823333	568.593768
34.529373	4.538882	40852.577222	568.244624
34.370214	4.189475	39151.094444	568.593768
34.070159	4.189475	39151.094444	568.593768
33.901987	4.189475	51432.838889	568.593768
34.180250	4.189475	40850.150000	568.593768
33.815743	4.189475	46699.755556	568.593768
34.828194	4.189475	46114.795000	568.593768
34.328032	4.888333	34104.899444	568.244624
34.423369	4.888333	51658.570556	568.244624
33.809774	4.189475	38714.194444	568.593768
34.376596	4.538882	37578.254444	568.244624
33.303651	4.538882	41896.282778	568.244624
34.002850	4.888333	29602.402222	568.244624
33.527615	4.888333	38185.060000	568.244624
33.114046	4.189475	33561.201667	568.593768
32.900623	4.538882	41498.218333	568.244624
33.087959	4.189475	48381.820556	568.593768
