power (mW)	FWHM	peak value	peak location
0.084042	11.401682	83.011000	0.000000
0.082965	11.896855	77.671111	0.000000
0.139782	136.747177	75.243889	0.000000
0.142525	34.101457	77.671111	0.000000
0.197175	16.358112	89.807222	0.000000
0.257876	20.169908	108.254111	0.000000
0.272360	154.473405	102.428778	0.000000
0.298050	19.176343	142.235222	0.000000
0.478559	11.162101	132.526333	0.000000
0.501616	14.663119	158.254889	0.000000
0.596073	19.545875	178.643556	0.000000
0.703498	27.166228	191.750556	0.000000
0.703314	22.668609	202.430333	0.000000
0.858359	26.462976	216.508222	0.000000
0.884411	27.862782	243.693111	0.000000
1.086372	33.742783	264.081778	0.000000
1.112411	23.018799	266.509000	0.000000
1.309016	31.691803	309.713556	0.000000
1.296137	29.266981	304.373667	0.000000
1.551731	32.029916	364.568778	570.338836
1.579383	20.583914	389.811889	571.036557
1.796843	23.010106	395.151778	571.036557
1.810121	27.169664	424.278444	571.385351
2.100231	26.493079	455.346889	571.734101
2.157536	27.166228	484.959000	569.640940
2.351629	28.205706	523.794556	569.989910
2.530244	29.591050	493.211556	570.338836
2.563518	29.606034	564.086444	570.338836
2.854577	28.216410	583.989667	569.640940
2.887008	29.606034	619.912556	570.338836
3.019024	28.570166	636.417667	570.338836
3.305175	23.710357	709.719778	568.942870
3.396023	29.255887	716.516000	569.989910
3.505343	25.792654	746.128111	570.338836
3.614987	29.956225	746.613556	569.291927
3.973079	29.613518	814.090333	569.989910
4.089879	24.057518	854.867667	569.291927
4.331696	26.139548	870.401889	568.593768
4.433635	25.445716	940.791333	569.291927
4.676432	28.570166	966.034444	568.593768
4.890946	26.486397	1001.957333	569.291927
5.020540	28.219975	1049.530889	568.593768
5.242537	27.869828	1070.890444	568.942870
5.334536	24.404634	1117.493111	568.593768
5.400183	25.098733	1096.133556	568.942870
5.822166	25.098733	1192.251556	568.244624
6.024173	24.057518	1262.641000	568.593768
6.089591	25.098733	1283.515111	568.244624
6.525608	25.448924	1324.777889	567.895435
6.832154	24.404634	1388.371111	567.895435
6.794299	24.057518	1404.390778	568.244624
7.197216	23.710357	1523.810111	567.895435
7.199350	25.098733	1512.159444	567.546203
7.384041	24.057518	1568.471000	567.895435
7.600657	24.404634	1609.733778	567.546203
7.884533	23.710357	1676.725111	568.244624
7.948083	23.710357	1651.482000	568.244624
7.974157	24.057518	1687.890333	567.895435
7.964324	24.057518	1727.211333	567.895435
8.120930	23.360210	1817.018556	567.895435
8.713039	23.710357	1931.098000	567.546203
8.820905	23.710357	1915.078333	567.546203
9.074879	23.015903	2037.410333	567.546203
9.118194	22.668609	2031.585000	567.895435
9.305049	22.668609	2125.761222	567.196927
9.570992	23.363152	2124.790333	567.546203
9.681596	22.321270	2199.548778	567.546203
10.142185	23.015903	2353.434667	567.546203
10.052755	21.973888	2391.784778	567.196927
10.273645	23.015903	2354.405556	567.546203
10.306020	23.015903	2143.237222	567.546203
10.491852	21.973888	2433.047556	567.196927
10.462242	22.668609	2458.290667	567.196927
10.851063	21.973888	2633.050667	566.847607
10.763678	22.321270	2572.855556	567.196927
10.894044	21.626461	2618.972778	567.196927
11.367526	21.278989	2830.141111	567.196927
11.294980	21.278989	2854.898778	566.847607
11.422414	21.278989	2900.530556	566.847607
11.412532	20.583914	2950.045889	567.196927
11.606715	20.583914	3035.969556	566.847607
11.744612	20.236310	3076.746889	566.847607
11.550851	21.629180	2998.590333	566.847607
12.085048	19.888661	3209.273222	566.498243
11.942288	19.540968	3300.536778	566.148836
11.951365	19.888661	3317.041889	566.498243
11.788369	20.236310	3235.972667	566.498243
12.047725	19.540968	3433.063111	566.148836
12.330557	19.891159	3506.850667	566.148836
12.528336	19.195641	3658.309333	565.799385
12.552935	18.499945	3850.059889	565.799385
12.387208	19.195641	3688.892333	565.799385
12.487503	18.499945	3801.030000	565.799385
12.656903	18.149755	3938.896222	565.799385
12.498981	18.499945	3908.798667	565.799385
12.419034	18.499945	3907.342333	565.799385
12.363572	18.152032	3975.304556	565.449891
12.597420	16.759935	4332.106222	565.100353
12.830212	17.108025	4420.942556	565.100353
12.906356	16.063621	4759.297333	564.750771
12.498502	17.108025	4372.883556	565.100353
12.772032	16.063621	4801.045556	564.750771
12.520679	16.411800	4530.653000	564.750771
12.520459	16.063621	4664.150222	564.750771
12.370305	16.411800	4446.185667	564.750771
