power (mW)	FWHM	peak value	peak location
-0.073731	44.632610	1011.180778	542.992172
-0.068090	14.396572	942.733111	541.935148
-0.057361	94.128583	932.053333	553.190211
0.003800	86.056616	937.878667	545.105066
0.107069	141.529723	976.228778	538.761779
0.226798	158.762490	955.354667	539.114546
0.333037	55.652977	957.781889	541.230253
0.437540	44.519637	969.432556	540.172591
0.737051	144.037860	950.014778	544.753024
0.778459	76.272055	927.198889	542.992172
0.968894	147.179438	963.607222	545.105066
1.281182	135.855685	928.655222	544.048811
1.300109	142.483856	933.995111	539.114546
1.589183	151.646376	932.538778	541.582722
1.703645	139.135792	958.267333	551.434504
2.232984	147.746649	971.859778	539.819951
2.291353	102.159521	932.053333	543.344427
2.845142	137.172203	935.451444	541.230253
2.899235	143.226036	924.771667	544.048811
3.280809	112.297091	960.209111	541.935148
3.703203	119.871693	980.112333	540.525187
4.110347	28.223539	1345.652000	544.753024
4.739942	14.322067	1473.809333	543.344427
4.657939	30.660609	1316.039889	565.100353
5.252358	9.786441	1668.472556	541.230253
5.680983	7.689350	2174.791111	565.100353
6.136436	7.689350	2261.685667	546.512808
6.524635	7.340293	2579.651778	538.408970
6.935438	6.641219	3081.115889	547.568165
7.324338	6.641219	3549.569778	543.696641
7.745073	6.291289	3834.040222	540.525187
8.560363	5.942144	5222.896778	543.696641
8.443976	6.291289	4678.713556	565.449891
9.041534	6.291289	5245.712667	539.467270
9.534641	5.942144	5641.835333	542.992172
10.120667	5.941402	5593.776333	543.344427
10.901148	5.592257	7377.784667	541.582722
11.138169	5.592257	7739.926222	539.114546
12.192624	5.592257	9698.694556	565.449891
12.040136	5.242414	9351.116333	565.799385
12.888970	5.242414	10148.216111	542.992172
12.853909	5.242414	10459.871444	541.230253
13.074547	5.242414	10766.186889	544.753024
14.325452	5.242414	12639.031556	545.105066
14.984879	5.591559	13189.525556	539.467270
15.456125	5.591559	14110.413667	542.992172
16.116134	5.591559	14110.413667	542.992172
16.756275	5.241760	17536.680556	545.105066
17.461597	5.241760	17536.680556	545.105066
17.896278	5.591559	14950.232556	540.877741
18.233949	5.241760	16098.308667	543.696641
19.043729	5.241760	17171.140889	541.935148
18.879195	5.241760	17140.072444	541.582722
19.339674	5.241760	17356.580667	538.761779
19.982246	5.241760	17439.591667	544.400939
20.045165	5.241760	17340.075556	540.877741
21.174840	5.590861	19976.524333	540.172591
22.256039	5.590861	21301.302222	539.467270
22.621821	5.590861	21096.930111	544.400939
23.032168	5.241105	22089.178556	545.457066
23.226156	5.241105	23937.265556	542.287532
23.602825	5.241105	24624.169444	566.148836
24.066061	5.241105	26890.224111	540.877741
24.715505	5.241105	27214.015556	539.114546
25.628094	5.241105	27281.006889	539.467270
25.920803	5.241105	25330.976556	566.498243
26.870435	4.891392	27287.803111	546.160937
26.807015	5.590162	26032.929222	566.498243
27.199015	5.590162	25374.181111	540.525187
27.175409	5.240450	27321.784222	545.105066
28.092635	5.240450	26195.067667	544.753024
28.246176	5.240450	28716.466111	547.216422
28.868932	5.240450	29091.714667	566.498243
28.917554	5.240450	29706.772778	546.512808
29.809717	5.240450	31368.449111	543.696641
29.597503	5.240450	28974.237111	538.761779
30.839542	5.240450	30028.137000	543.696641
30.208655	5.240450	27904.803000	539.819951
31.269016	4.890781	31343.206000	538.761779
31.387259	4.890781	29064.529778	539.819951
32.171151	5.239794	34304.902556	566.847607
32.594598	5.239794	34197.133889	542.287532
32.167509	5.239794	32010.692111	542.639873
32.943891	4.890781	34002.470667	566.847607
33.677307	5.239794	33784.991556	566.847607
32.991807	5.239794	33902.954556	544.400939
33.843924	4.890781	33244.691889	566.847607
34.984959	5.239794	35833.567111	544.048811
34.838279	5.239794	32934.492889	540.172591
34.093928	5.239794	32938.376444	567.196927
34.282260	5.239794	32585.458333	541.935148
34.608468	5.239794	32114.091778	539.819951
34.633648	5.239794	33044.203333	567.196927
34.240363	5.239794	34493.255000	567.196927
34.724815	5.239794	38164.671333	538.761779
35.827278	5.239794	33617.027778	542.287532
35.220053	5.239794	33617.027778	542.287532
34.577496	5.239794	36238.913222	543.344427
34.673093	5.239794	32173.316000	567.196927
35.752626	5.239794	31590.782667	541.230253
35.913888	5.239794	33258.769778	544.048811
35.626283	5.239794	30571.349333	541.230253
35.309534	5.588764	33202.458222	567.196927
35.296365	5.588764	30993.200556	567.196927
35.308308	5.588764	30993.200556	567.196927
