power (mW)	FWHM	peak value	peak location
-0.687412	129.494840	851.469556	542.287532
-0.653972	28.803259	857.294889	545.809023
-0.682434	132.779105	856.324000	546.160937
-0.675392	116.074890	846.129667	538.408970
-0.539306	13.752748	860.207556	542.287532
-0.311345	157.373729	896.615889	548.623136
-0.284218	142.682566	857.780333	539.819951
0.081858	140.411237	850.498667	553.541223
0.429934	157.832303	858.265778	541.230253
0.833091	107.785789	861.663889	545.809023
1.058975	161.714603	877.198111	541.582722
1.442151	127.244472	922.829889	540.172591
1.872666	134.412362	860.693000	541.230253
2.398432	154.097592	932.053333	544.048811
2.897786	117.040093	992.248444	542.992172
3.403176	145.494302	1040.792889	543.344427
4.099324	85.670335	1106.327889	539.114546
4.558698	99.443985	1136.910889	539.819951
5.219926	65.688828	1232.543444	544.048811
6.521966	65.381311	1332.059556	544.048811
6.653397	59.185871	1380.604000	542.287532
8.277433	53.683200	1495.654333	541.582722
8.979134	55.054225	1491.285333	542.287532
9.516531	52.661240	1506.819556	544.048811
9.878535	50.938948	1552.451333	548.271522
10.222107	49.203290	1550.995000	546.512808
12.241504	45.080328	1759.736111	540.877741
12.956781	39.208146	2017.992556	541.582722
13.347298	36.441805	2173.820222	578.352003
15.643597	33.674008	2512.660444	539.114546
16.207569	34.010260	2561.690333	543.696641
17.399583	32.285434	2684.022333	578.699873
18.632537	30.210291	2949.560444	543.696641
19.494074	28.821348	3108.786222	540.172591
20.198456	28.126874	3319.469111	544.400939
22.031875	27.781413	3604.910444	541.582722
23.744575	26.741342	3807.340778	541.935148
23.953934	25.701135	3874.817556	544.400939
25.954375	25.355449	4153.462667	539.467270
27.384124	24.663942	4383.563333	542.992172
28.305522	23.969195	4582.595556	543.696641
29.576017	22.928537	4917.066778	539.114546
30.578626	23.620313	4977.261889	541.230253
33.224518	22.925609	5375.811778	547.919865
33.043990	22.925609	5408.822000	540.877741
35.611743	22.230904	5919.509556	541.230253
38.230373	21.536198	5843.780222	539.114546
38.353532	22.230904	5988.442667	544.400939
39.198990	21.536198	6177.766000	541.230253
40.232953	21.882154	6007.375000	543.696641
40.920917	21.187492	6402.526778	541.935148
43.522313	21.187492	6931.175778	542.992172
44.065392	20.838829	6891.854778	541.230253
46.805750	21.187492	7200.112000	541.582722
46.933201	20.838829	7147.198556	545.105066
48.051592	21.184785	7504.971111	542.639873
50.158604	20.490210	7879.248778	539.467270
51.662707	19.795635	8057.406889	545.105066
52.372256	20.490210	8112.262111	540.172591
55.702509	19.795635	8802.564111	544.400939
56.812675	20.141636	8806.933111	542.639873
57.672451	19.795635	8981.207667	538.761779
62.443041	18.404130	10659.874556	545.105066
62.177626	18.404130	10770.555889	583.912605
62.460190	18.404130	10624.437111	540.877741
63.412573	18.401776	10738.031111	544.048811
63.777626	18.401776	11272.505444	540.525187
66.597865	18.055731	11863.291333	543.696641
68.055013	18.053421	11908.437667	539.114546
68.002821	18.399421	10366.180667	538.761779
69.320282	17.705110	12138.052889	542.287532
72.460198	17.705110	12813.306111	539.819951
73.130793	18.399421	12723.498889	538.761779
72.401694	17.008621	13188.554667	541.230253
75.611565	17.356843	13167.680556	539.467270
77.557098	17.356843	13612.833111	585.300981
77.977328	16.660442	14435.176000	539.467270
77.831000	16.660442	14995.864333	542.992172
77.980054	15.964217	15683.253667	544.753024
80.078442	16.312307	15810.925556	585.994902
80.952615	16.310217	15628.883889	541.935148
81.612153	16.658308	15787.138778	543.344427
84.734683	16.658308	16407.051333	586.341796
85.326792	16.310217	16812.882889	540.172591
85.543003	16.310217	17050.750667	543.344427
85.447026	16.656173	16859.485556	541.582722
86.564122	15.962171	17777.946444	545.105066
86.895724	15.266211	18167.272889	541.582722
88.078918	15.960124	18498.346000	544.048811
89.854586	15.266211	19159.035889	547.568165
90.043662	14.918297	19108.064222	543.344427
90.949915	15.612166	18898.837667	546.512808
89.897850	15.612166	18859.516667	540.877741
90.525985	15.612166	19246.415889	540.877741
92.757476	14.916383	19841.570778	542.639873
91.174245	15.264252	18926.508000	587.382210
91.418548	14.916383	19163.890333	541.582722
91.344338	14.568557	19476.516556	539.467270
93.078757	15.610163	19110.491444	587.382210
93.561131	15.958077	19349.815556	542.287532
91.783084	14.914468	19877.979111	539.114546
94.208155	15.610163	19738.171111	539.114546
95.527315	15.610163	20116.332333	539.819951
95.123637	15.608159	19922.640000	539.819951
94.815945	15.260333	20099.827222	542.992172
