power (mW)	FWHM	peak value	peak location
-0.613854	49.234096	854.867667	539.467270
-0.527841	36.904854	857.780333	540.172591
-0.274453	68.222974	852.440444	544.400939
-0.218586	37.042269	856.809444	543.344427
-0.050255	39.446911	880.596222	546.864636
0.124647	149.460372	868.460111	538.761779
0.492757	148.927287	847.100556	538.761779
0.512424	118.260017	861.663889	544.048811
0.868058	152.352376	891.276000	540.525187
0.901621	126.924046	891.276000	539.467270
0.860686	114.100734	869.916444	542.639873
1.544971	134.466238	874.770889	578.352003
1.624549	139.946635	901.955778	547.568165
2.516709	138.228074	1034.482111	544.400939
2.556043	137.820805	1021.375111	546.512808
3.494772	87.921079	1177.202778	541.230253
3.859951	61.596450	1260.213778	539.114546
4.547235	53.697054	1379.147667	538.408970
5.298466	52.304693	1469.440333	540.525187
5.926220	46.805048	1571.869111	540.525187
7.324314	46.455379	1692.259333	542.992172
7.526738	43.354924	1754.881667	546.512808
8.385473	40.256760	1867.019333	538.761779
9.752788	36.110929	2054.886333	544.400939
9.920512	40.251601	1966.535444	539.467270
10.792529	36.451139	2208.286778	543.696641
12.411252	32.996596	2502.466111	540.877741
12.984919	33.341786	2548.583333	574.522524
14.549326	32.301952	2699.071111	541.230253
15.688226	30.225733	2823.830333	540.172591
16.121738	30.225733	2930.142667	542.992172
17.055256	28.839760	3095.193778	575.219189
17.556822	28.839760	3146.650889	542.287532
19.956035	28.839760	3429.665000	575.567456
20.090829	27.799157	3577.725556	575.915679
21.660453	26.758417	3744.233000	539.114546
22.287986	25.717542	4024.334444	576.263858
24.841588	25.371632	4374.339889	545.105066
25.241062	25.371632	4306.863111	539.114546
26.842715	24.330531	4784.055000	539.114546
27.349018	24.330531	4825.803222	540.525187
30.090787	23.289295	5447.657556	544.048811
30.287222	22.594103	5491.833000	577.656131
31.379871	21.898910	6024.851000	545.457066
33.652670	22.247924	6116.114556	539.114546
35.005141	21.898910	6465.634556	540.877741
37.331574	21.898910	6228.252222	547.568165
36.665442	21.203716	6838.455889	538.056118
38.837777	21.549940	7087.488889	544.048811
40.001481	20.508521	7784.101667	541.230253
41.564097	21.201014	7754.975000	541.582722
43.845041	20.854790	8181.195222	543.344427
43.881922	20.508521	8232.166889	541.582722
45.181438	21.201014	8329.741222	542.639873
47.524794	21.201014	8580.716000	540.525187
48.543758	20.852132	8841.885111	539.114546
50.389335	20.157070	9439.467222	542.287532
51.876128	19.810801	9876.852667	538.761779
53.743455	20.157070	9939.475000	544.400939
55.145523	20.154500	9865.687444	580.090909
57.270941	20.503294	10156.954111	538.761779
57.843340	20.154500	10345.306556	543.344427
58.171348	20.849474	10554.047667	542.287532
59.912434	19.805749	11111.823333	540.525187
62.293250	20.500679	11206.485000	581.133722
63.548483	19.805749	11378.332333	581.133722
64.975447	20.151929	11582.219000	544.400939
67.046124	20.498063	11747.270111	581.481238
66.793824	20.151929	11926.884556	581.481238
67.650031	19.803222	11994.846778	539.114546
67.729025	20.151929	12502.621667	581.481238
69.221202	20.149357	12502.136222	582.176136
70.965671	19.803222	12858.452444	540.877741
73.371455	20.149357	13510.404333	541.230253
76.889789	20.149357	13474.481444	542.287532
76.925425	19.800694	13433.218667	582.523519
77.738401	19.800694	13565.745000	541.230253
76.772290	20.146784	13501.666333	545.457066
77.390019	20.146784	13976.916444	539.114546
78.253499	20.841492	13947.304333	541.935148
81.046705	20.146784	14646.344333	541.230253
83.679884	19.798165	15361.404000	544.048811
82.859287	19.798165	15110.914667	542.639873
83.266850	19.798165	14991.980778	544.048811
85.293485	20.492829	15159.944556	538.761779
84.543584	20.144210	15090.040556	583.565400
85.523369	19.795635	15669.175778	583.912605
85.190091	20.144210	15738.108889	544.048811
86.567187	20.490210	16001.219778	542.639873
88.126407	20.144210	16676.473000	584.259766
88.910598	20.490210	15092.467778	584.259766
87.739620	19.447105	16427.440000	540.877741
89.849371	20.838829	16429.381778	544.400939
91.625352	20.141636	16940.554778	584.606882
90.470614	19.098618	17406.581444	544.048811
92.549952	19.447105	17695.420889	538.056118
92.618320	19.793105	17446.873333	539.819951
92.251252	19.793105	17231.336000	541.582722
91.291710	19.444618	17776.490111	544.753024
93.356435	19.444618	18569.706333	543.344427
93.642563	20.487591	17689.595556	585.300981
92.922710	19.790573	18163.874778	542.287532
92.586367	20.139060	17732.314667	546.864636
93.266215	20.139060	18106.106889	542.639873
93.440703	19.790573	18210.477444	544.753024
