power (mW)	FWHM	peak value	peak location
0.074348	90.211512	83.011000	0.000000
0.081346	43.698937	83.011000	0.000000
0.111208	19.592315	67.962222	0.000000
0.168989	25.628611	86.409111	0.000000
0.189965	105.892716	83.011000	0.000000
0.212703	2.091317	97.088889	0.000000
0.299040	9.065790	141.264333	0.000000
0.361871	92.358081	132.526333	0.000000
0.430791	65.832128	136.409889	0.000000
0.493741	26.509762	132.526333	0.000000
0.607644	11.138168	154.856778	0.000000
0.617608	25.120853	170.391000	0.000000
0.806012	40.987498	190.294222	0.000000
0.843785	27.589045	185.925222	0.000000
0.964667	31.687793	219.420889	0.000000
1.104596	21.270959	257.771000	0.000000
1.111351	22.660046	255.829222	0.000000
1.249198	15.709493	295.635667	0.000000
1.344108	27.173098	303.402778	0.000000
1.518988	31.687793	312.626222	0.000000
1.616484	21.637332	364.568778	570.687718
1.779722	26.833202	365.539667	568.593768
1.804935	24.754825	404.375222	569.291927
2.064814	22.318461	447.094333	568.593768
2.231060	30.652862	459.715889	567.895435
2.255928	24.066604	477.191889	567.895435
2.451459	21.278989	514.571111	567.546203
2.582914	26.846739	574.766222	566.498243
2.745504	24.069631	628.165111	566.847607
2.854421	22.321270	673.796889	566.148836
3.148381	21.976651	755.837000	565.799385
3.284253	22.326885	754.866111	565.799385
3.352131	20.238852	876.712667	565.100353
3.552548	18.149755	998.559222	565.100353
3.741971	15.713431	1176.231889	564.750771
3.993419	12.924800	1414.585111	564.750771
4.090559	9.436337	1734.007556	564.401146
4.302852	9.786441	1851.970556	564.401146
4.446083	8.389428	2175.762000	564.401146
4.599782	7.691269	2529.651000	564.401146
4.716561	7.342124	2569.457444	564.051477
4.848088	6.992936	3132.573000	564.051477
4.969752	6.293643	3557.336889	564.051477
5.151651	6.643703	3852.487111	564.051477
5.383941	5.944367	4590.848111	564.051477
5.811977	5.945108	5670.476556	564.051477
6.048453	5.945108	6251.068111	563.701765
6.203591	5.595744	7180.208778	563.701765
6.374144	5.595744	7563.224444	563.701765
6.489171	5.595744	7678.760222	563.701765
6.617628	5.246337	8248.186556	563.701765
6.716083	5.945848	8707.417000	563.352009
7.008339	5.246337	10122.002111	563.352009
7.373337	5.246337	11438.042000	563.352009
7.356793	4.896886	11190.465333	563.352009
7.657571	4.896886	12370.580778	563.352009
7.807870	5.246990	12174.461222	563.352009
7.951311	5.246990	13435.645889	563.352009
8.560569	5.246990	14841.978444	563.002209
8.514503	5.246990	15295.869000	563.002209
8.490168	5.246990	15273.053111	563.002209
8.833886	5.246990	16134.231556	563.002209
8.892891	5.597137	16257.534444	563.002209
9.043297	5.247643	17142.499667	563.002209
9.497018	5.247643	16579.384111	563.002209
9.642952	5.247643	16817.737333	563.002209
9.591048	5.597137	15625.000333	562.652366
9.789799	5.597833	15896.363778	562.652366
10.110653	5.597833	16314.816889	562.652366
10.320601	5.947328	14771.589000	562.652366
10.641578	5.947328	13599.726111	562.652366
10.685054	5.947328	12281.744444	562.652366
10.513282	5.947328	12923.502000	562.652366
10.741745	5.947328	12040.964000	562.652366
11.039523	6.296779	11238.524333	562.652366
11.088347	6.296779	10972.015333	562.652366
11.276664	6.296779	10431.230222	563.002209
11.059896	6.646186	9220.046333	563.002209
11.501134	6.995549	9201.599444	563.002209
11.539416	6.995549	9201.599444	563.002209
11.629490	7.344869	7586.040333	563.352009
11.606756	8.043377	6973.409444	563.352009
11.574099	8.043377	6941.370111	563.352009
12.009167	8.392566	5684.069000	563.352009
11.890081	8.391520	5832.129556	563.701765
11.872587	8.740621	5882.615778	563.701765
12.071793	8.740621	5926.791222	563.701765
12.428480	9.438692	5776.303444	563.701765
12.305959	9.787662	5333.092667	564.051477
12.344241	10.136588	5332.607222	564.051477
12.590461	10.485470	5136.973111	564.051477
12.665160	11.183103	4983.087222	564.051477
12.401646	11.181706	4712.694667	564.051477
12.591623	11.183103	4777.744222	564.051477
12.759661	11.879075	4690.849667	564.051477
12.608014	13.621729	4305.406778	564.401146
12.785282	13.274947	4433.564111	564.401146
12.802029	13.273286	4466.574333	564.401146
12.574785	13.621729	4292.785222	564.401146
12.915449	14.666794	4158.802556	564.401146
12.612828	16.409744	3684.037889	564.750771
12.584026	15.365208	3980.644444	564.401146
12.591236	15.711462	3806.855333	564.750771
12.678555	16.061609	3961.712111	564.401146
12.731518	16.061609	3989.382444	564.401146
