power (mW)	FWHM	peak value	peak location
-0.160194	37.919478	783.507333	542.992172
-0.161451	80.258782	810.206778	549.677721
-0.156618	105.938167	789.818111	544.753024
-0.149371	65.474368	800.983333	545.105066
-0.123580	90.710041	828.168222	545.105066
-0.119472	88.443620	797.099778	539.467270
-0.073999	115.587395	811.177667	545.105066
-0.027922	149.581169	783.021889	540.877741
-0.023212	111.710645	793.216222	541.230253
0.037940	147.453361	770.400333	545.457066
0.078006	149.209010	776.711111	539.114546
0.152197	136.171290	810.206778	539.114546
0.170232	119.723554	788.847222	547.568165
0.290072	141.736112	821.857444	569.291927
0.297452	138.614315	804.866889	543.696641
0.450433	150.002081	869.431000	539.114546
0.476259	123.861930	894.674111	542.287532
0.553198	135.403894	948.558444	542.992172
0.665891	133.289975	952.442000	538.761779
0.795876	151.353960	1015.064333	541.935148
0.804142	141.133611	1034.482111	544.400939
0.963413	104.919972	1140.794444	543.344427
1.052246	83.323161	1161.183111	545.809023
1.243726	67.868345	1220.407333	542.992172
1.335203	67.526486	1254.388444	546.160937
1.360992	66.141514	1277.689778	538.761779
1.512540	61.652212	1343.224778	541.935148
1.671184	56.176069	1446.139000	543.344427
1.776614	57.533385	1476.722000	540.525187
1.904726	48.941618	1548.567778	545.105066
2.118795	46.182699	1600.510333	544.048811
2.220440	39.288374	1717.502444	541.582722
2.351322	45.494082	1756.823444	541.230253
2.603441	41.003196	1839.349000	540.172591
2.608661	41.018877	1828.183778	538.761779
2.687776	38.943184	1919.932778	539.114546
3.024654	36.516302	2103.430778	543.344427
3.207390	34.788546	2208.286778	540.172591
3.338995	32.713756	2264.112889	568.244624
3.440336	34.101457	2202.946889	545.809023
3.552062	32.709606	2354.891000	545.105066
3.887428	31.671740	2477.708444	544.048811
3.965961	30.979605	2595.671444	540.172591
4.380445	27.166228	2830.626556	541.582722
4.404611	27.512766	2848.588000	540.172591
4.503404	27.512766	2892.763444	567.895435
4.770867	26.126349	3046.163889	540.172591
5.103692	26.816255	3168.981333	567.895435
5.089804	25.432874	3157.816111	538.761779
5.068427	27.166228	3072.863333	567.895435
5.230374	26.123047	3209.273222	546.864636
5.355232	25.429660	3259.759444	544.400939
5.633179	25.079730	3359.761000	546.864636
5.688091	25.079730	3487.918333	541.582722
6.197249	24.383084	3656.367556	541.582722
6.222493	25.769857	3487.432889	540.172591
6.130428	26.809468	3365.100889	569.640940
6.418783	25.420014	3663.163778	544.753024
6.752587	24.030201	3932.585444	541.582722
7.280525	25.067040	3950.061444	570.687718
7.203477	24.720458	4052.490222	570.687718
7.571400	23.677449	3887.439111	543.696641
7.622343	24.720458	4173.851333	541.935148
7.634897	25.063865	4088.898556	540.877741
8.127370	23.677449	4492.302889	543.696641
8.498690	22.634304	4635.994444	541.230253
8.591598	24.024120	4557.837889	540.525187
8.762407	22.981064	4710.267444	541.230253
8.675320	22.981064	4574.828444	544.048811
8.691468	23.324826	4551.527111	571.734101
9.016518	22.631439	4804.443667	542.992172
9.002552	22.978155	4829.686778	540.172591
9.314953	23.324826	4785.511333	543.696641
9.677695	22.975244	4981.145444	539.467270
9.656118	23.671452	4727.743444	572.431471
10.091510	22.975244	5102.506556	540.525187
10.115309	21.932319	5238.916444	572.431471
10.265324	21.932319	5254.936111	540.877741
10.390326	23.318914	5240.372778	541.935148
10.309681	22.625706	5306.878667	544.753024
10.529260	22.625706	5296.198889	544.048811
10.964875	22.625706	5479.696889	540.172591
11.065521	22.625706	5572.902222	572.780089
11.134894	21.929541	5701.545000	538.761779
11.170391	22.625706	5572.416778	573.128664
11.402133	22.276211	5728.729889	543.344427
11.190349	22.622838	5520.959667	544.400939
11.501695	22.276211	5825.333333	538.056118
11.349141	21.582825	5804.944667	541.582722
11.827280	21.929541	5965.141333	538.761779
11.519171	21.582825	5861.741667	540.172591
11.695763	21.929541	5943.296333	544.048811
11.964507	21.929541	6058.832111	543.696641
11.964902	21.233374	6051.065000	542.287532
11.894940	22.276211	6039.899778	543.344427
11.840147	22.622838	5883.586667	543.344427
12.000721	21.580090	6031.161778	540.525187
12.020110	22.622838	5937.471000	539.114546
12.356882	21.580090	6160.775444	573.128664
12.280925	22.276211	6019.025667	539.467270
12.001208	21.233374	5995.238889	573.477195
11.982876	21.580090	5997.180667	540.877741
11.827658	23.315957	5750.089444	573.477195
12.141228	22.969420	5380.180778	541.230253
12.215445	21.926761	6095.240444	541.230253
