power (mW)	FWHM	peak value	peak location
-0.124698	107.302148	944.189444	544.400939
-0.127535	134.297363	955.354667	545.457066
-0.124767	59.324420	956.325556	543.696641
-0.108819	82.151358	939.335000	545.809023
-0.100990	87.362779	922.829889	540.172591
-0.089013	111.952052	922.344444	548.623136
-0.052289	148.022719	927.684333	540.877741
-0.013563	25.457801	928.169778	544.400939
0.033013	142.065023	931.567889	558.450862
0.054940	14.396572	927.198889	539.467270
0.079148	74.943490	931.082444	540.525187
0.196463	161.606163	911.664667	545.457066
0.210312	27.483447	953.898333	543.696641
0.278476	158.185027	962.150889	546.512808
0.406614	149.649102	956.811000	553.892193
0.449681	18.424835	924.286222	544.400939
0.555970	34.796331	987.394000	543.696641
0.595085	85.135570	916.519111	542.287532
0.666633	54.310231	949.529333	539.819951
0.692756	41.499609	925.742556	542.992172
0.977563	114.458656	962.150889	543.344427
1.049673	130.932788	930.597000	542.992172
1.041221	23.805297	946.616667	546.160937
1.100963	107.897927	958.267333	548.623136
1.423108	160.013628	934.966000	540.877741
1.426746	43.255901	956.325556	541.935148
1.700275	7.055237	979.626889	542.992172
1.745772	34.038217	951.471111	540.877741
1.791317	122.177112	943.218556	540.877741
2.053816	147.190670	950.985667	540.877741
2.093359	28.250865	947.587556	542.287532
2.266631	164.718204	917.490000	543.344427
2.432381	143.179599	951.956556	545.809023
2.658535	133.096501	953.898333	547.568165
2.743743	154.182611	962.150889	540.525187
2.932652	159.093668	971.374333	539.819951
2.978314	114.105592	896.130444	552.839156
3.171547	111.989121	935.451444	545.809023
3.491819	162.002624	929.140667	548.271522
3.687049	96.420169	939.820444	540.525187
3.665151	96.420169	939.820444	540.525187
3.797092	151.293440	950.500222	541.935148
3.989067	142.663670	927.198889	541.582722
4.132785	143.980587	950.500222	570.338836
4.478710	146.551879	926.713444	541.582722
4.566648	112.973175	925.742556	541.935148
4.861908	107.047543	967.490778	545.105066
5.003503	160.719883	948.558444	539.114546
5.147829	152.352376	931.567889	539.114546
5.334371	136.306984	931.082444	539.819951
5.489082	160.056488	948.073000	540.172591
5.710162	35.223149	1206.329444	543.696641
5.765046	113.322189	1150.503333	540.877741
6.015483	33.422476	1249.048556	572.431471
6.470599	9.763156	1662.647222	541.230253
6.503833	7.670089	1927.699889	539.819951
6.828995	7.321911	2108.285222	572.780089
6.907078	6.623752	2302.463000	539.114546
6.849450	6.623752	2236.928000	540.877741
6.965353	6.274738	2550.039667	572.780089
7.182347	4.879738	3321.410889	538.761779
7.332517	5.228620	3647.144111	542.287532
7.338008	5.228620	3683.552444	546.160937
8.032910	4.879738	4904.930667	543.344427
8.294390	4.530900	5392.802333	538.761779
8.353543	4.530900	5920.965889	541.582722
8.442075	4.879738	6082.133444	540.877741
8.679282	4.530900	7018.070333	541.230253
8.562124	4.530900	6978.263889	539.114546
9.193761	4.879122	7144.771333	546.512808
9.266718	4.879122	8099.640556	540.172591
9.365602	4.879122	8316.634222	544.400939
9.401055	4.182105	9040.917333	544.753024
9.527337	4.182105	8923.439778	547.568165
9.921380	4.182105	10650.165667	545.105066
9.881655	3.833355	12207.471444	545.457066
10.165775	4.182105	12993.891444	538.056118
10.214441	3.833355	13084.669556	542.639873
10.216171	4.182105	14005.557667	540.525187
10.240903	4.182105	13666.232000	545.457066
10.456392	4.182105	14478.866000	538.761779
10.671447	4.182105	13867.206000	540.172591
10.704168	4.182105	14615.275889	539.819951
11.030729	4.182105	15336.646333	539.819951
10.809062	4.182105	15706.069556	539.819951
11.233665	4.182105	15925.490444	542.992172
11.202289	4.182105	14152.647333	539.819951
11.179070	4.530900	14820.618889	539.467270
11.073958	4.182105	15793.935000	573.477195
11.454207	4.182105	15627.427556	541.935148
11.680704	4.530900	15940.539222	540.877741
11.647018	4.182105	16751.716889	541.230253
11.662899	4.530900	16055.589556	541.230253
11.784175	4.530900	17041.041778	542.287532
12.068146	4.530900	17091.042556	539.114546
11.873843	4.530900	16158.503778	539.467270
11.838688	4.530900	16304.137111	573.128664
11.897832	4.530900	16432.779889	541.230253
11.907886	4.530900	16930.360444	573.128664
11.819790	4.182105	18733.786556	543.344427
11.577373	4.530900	17632.798556	540.172591
11.568866	4.530900	17216.287222	539.819951
11.783742	4.530900	17500.757667	542.287532
11.930724	4.530900	17646.391000	547.568165
11.818077	4.530900	18451.257889	542.639873
