power (mW)	FWHM	peak value	peak location
0.017061	96.342365	90.778111	0.000000
0.043352	111.203097	76.700222	0.000000
0.047130	130.872827	73.302111	0.000000
0.095360	17.839689	82.040111	0.000000
0.170989	134.239255	89.807222	0.000000
0.180068	37.805751	92.234444	0.000000
0.238527	37.805751	92.234444	0.000000
0.292981	20.907757	103.885111	0.000000
0.359595	71.210442	118.933889	0.000000
0.459497	25.766596	120.390222	0.000000
0.556561	35.169846	146.604222	0.000000
0.565338	33.076431	147.575111	0.000000
0.686136	31.007057	166.022000	0.000000
0.782169	26.856879	173.789111	0.000000
0.898975	17.815225	187.381556	0.000000
0.971681	25.818641	196.119556	0.000000
1.093736	19.540968	210.197444	0.000000
1.201587	23.734212	230.100667	0.000000
1.398351	24.426132	238.838667	0.000000
1.507276	31.715832	262.625444	0.000000
1.573837	18.156583	276.217889	0.000000
1.675617	18.499945	294.664778	0.000000
1.890822	15.016941	359.228889	564.750771
1.928777	13.970128	409.229667	564.750771
2.055665	15.024456	412.142333	565.100353
2.277307	11.181706	589.329556	564.401146
2.326076	9.087411	636.903111	564.401146
2.438748	5.594350	1132.056444	564.401146
2.818754	5.245030	1725.755000	564.401146
2.912883	4.895667	1952.457556	564.051477
3.168169	4.895667	2093.721889	564.051477
3.216971	4.546260	3045.193000	564.051477
3.273559	4.546260	3394.713000	564.051477
3.519262	4.546260	3903.944222	564.051477
3.567409	4.546260	4614.149444	564.051477
3.933087	4.546260	5647.175222	563.701765
3.919770	4.196809	5850.576444	563.701765
4.112986	4.196809	6627.773000	563.701765
4.335296	4.196809	8055.950556	563.701765
4.619654	4.546826	8823.923667	563.701765
4.821493	4.546826	9940.931333	563.701765
4.904761	4.197331	11365.225333	563.352009
5.281512	4.197331	12555.535111	563.352009
5.402756	4.197331	13588.560889	563.352009
5.616890	4.197331	15402.666778	563.352009
5.994794	4.197331	15600.242667	563.352009
5.995353	3.847793	16230.349556	563.002209
6.076592	4.197854	16708.997778	563.002209
6.076592	4.197854	17066.770333	563.002209
6.384979	4.197854	17255.122778	563.002209
6.565301	4.547957	18702.718111	563.002209
6.931919	4.198376	20122.157667	562.652366
6.909071	4.198376	19580.887111	562.652366
7.188459	4.198376	21726.551556	562.652366
7.584827	4.198376	22380.445222	562.652366
7.484148	4.198376	22143.062889	562.652366
7.680761	4.198376	23407.645667	562.652366
8.198083	4.548523	22690.158778	562.302480
8.186215	4.198898	21971.215556	562.302480
8.260066	4.898714	20266.820111	562.302480
8.321561	4.549088	20486.241000	562.302480
8.855045	4.549088	20486.241000	562.302480
8.976919	4.549088	21115.862444	562.302480
9.072949	4.549088	21502.276222	562.302480
9.460164	4.549088	20787.216556	561.952550
9.629332	4.549088	20787.216556	561.952550
9.535551	4.549088	19874.095556	561.952550
9.743000	4.549088	19513.410333	562.302480
10.044607	4.898714	18082.805556	562.302480
10.230631	4.549088	17978.435000	562.302480
10.388248	4.549088	17540.564111	562.302480
10.678300	4.549088	16795.406889	562.302480
10.768772	4.898714	15842.479444	562.302480
10.976022	4.898714	16021.608444	562.302480
10.865012	4.898714	15572.086889	562.302480
10.931039	4.898714	15464.803667	562.302480
10.998539	4.548523	15304.121556	562.302480
11.359160	4.898714	14515.274333	562.302480
11.504021	4.898714	14515.274333	562.302480
11.486188	4.898714	14348.281444	562.302480
11.468280	4.548523	14213.813333	562.302480
11.736768	4.898714	13653.610444	562.302480
11.934745	4.548523	13561.376000	562.302480
11.812961	4.548523	12668.643667	562.302480
11.773409	4.548523	12418.639778	562.302480
11.886733	4.548523	11715.230778	562.652366
12.175144	4.548523	11885.136333	562.652366
12.225796	4.548523	11753.095444	562.652366
12.285318	4.898105	10825.411111	562.652366
12.156569	4.898105	10417.152333	562.652366
12.333076	4.898105	10001.611889	562.652366
12.529382	4.898105	9957.921889	562.652366
12.375323	4.898105	9159.365778	562.652366
12.468188	4.898105	9310.339000	562.652366
12.713998	4.898105	9032.179333	562.652366
12.741659	4.898105	8524.404444	562.652366
12.781115	4.898105	8446.247889	562.652366
12.513559	4.898105	7789.441556	562.652366
12.510622	4.898105	8423.432000	562.652366
12.451044	4.898105	7719.537556	562.652366
12.886922	4.898105	7786.043444	562.652366
12.675972	4.898105	7058.847667	562.652366
12.816329	4.898105	7195.743000	562.652366
12.738958	5.247643	7006.905111	562.652366
12.694854	4.898105	7130.208000	562.652366
