power (mW)	FWHM	peak value	peak location
-1.109877	52.566313	877.198111	540.877741
-1.114074	140.913500	885.936111	541.582722
-1.159084	147.413942	856.809444	545.105066
-1.082316	53.302968	885.936111	540.877741
-0.900960	51.929982	873.314556	539.114546
-0.871283	43.576768	878.169000	542.639873
-0.555280	70.943301	869.916444	541.230253
-0.227449	139.506902	828.168222	538.408970
-0.203530	121.840536	775.254778	547.568165
0.385339	123.110878	790.303556	541.582722
0.426639	155.259810	771.856667	544.400939
1.010044	131.229904	806.808667	540.877741
1.360647	145.554642	854.867667	585.300981
1.845330	131.930248	894.188667	542.287532
2.699469	122.209470	973.316111	543.696641
3.093085	142.758088	992.248444	541.935148
3.850376	120.350251	1048.560000	540.877741
3.962269	121.121113	1067.492333	541.582722
4.962692	85.141050	1189.338889	581.828709
5.691425	75.259817	1247.592222	541.582722
6.419954	66.721546	1317.981667	541.935148
7.292706	61.914370	1383.031222	543.344427
8.447969	60.880765	1464.585889	538.761779
9.060872	50.582672	1567.014667	541.230253
9.942107	50.563097	1652.938333	541.582722
11.579541	47.118347	1765.076000	542.639873
11.775897	45.394941	1823.814778	539.467270
12.201807	43.321484	1957.312000	542.287532
14.370867	39.527180	2124.304889	538.408970
15.372472	37.112097	2265.569222	542.287532
15.405745	37.112097	2336.444111	539.819951
16.984748	34.001540	2616.545556	539.114546
17.804451	32.273031	2779.654889	545.457066
19.002619	32.273031	2896.647000	578.352003
20.973061	31.233998	3191.311778	544.048811
20.852287	30.198696	3199.564333	542.287532
21.405817	29.504491	3456.364444	538.056118
24.483383	28.119678	3621.901000	547.919865
25.357482	27.428891	3949.576000	579.047698
26.908635	26.043446	4227.250222	541.935148
27.119250	25.694564	4360.747444	579.047698
28.821468	25.003327	4651.043222	539.819951
31.391574	24.308803	4831.628556	539.114546
31.391942	23.963072	5028.233556	539.467270
31.611791	23.617296	5136.002222	579.395479
33.792322	23.271475	5565.620556	542.639873
36.163852	22.230904	6124.852556	541.230253
37.263838	21.536198	6422.915444	538.761779
40.473074	21.536198	6761.270222	541.230253
42.058663	20.495447	7134.091556	539.819951
42.225890	21.536198	7008.846889	545.457066
44.686622	20.841492	7436.523444	544.400939
44.612019	20.841492	7800.606778	580.786162
45.244552	20.838829	7766.140222	543.344427
47.033069	20.492829	8053.523333	539.114546
48.117085	20.492829	8236.535889	538.408970
48.690404	20.144210	8427.801000	544.753024
50.380940	19.798165	8509.355667	540.172591
52.548996	19.795635	8992.858333	540.525187
54.144495	18.754970	9667.140667	544.048811
57.045870	18.754970	9904.037556	541.230253
57.167814	19.795635	9559.372000	543.344427
58.895210	19.447105	10219.576444	541.582722
60.391147	18.752573	10450.162556	541.582722
61.407770	18.752573	10835.605444	544.400939
64.488140	18.058040	11731.735889	539.819951
63.766590	18.404130	11656.977444	546.512808
65.571040	18.055731	12024.458889	543.696641
66.737839	18.404130	12003.584778	541.582722
66.844395	18.750175	11916.690222	540.525187
69.377110	18.055731	12681.750667	544.048811
71.894750	17.707376	13080.786000	539.467270
71.792846	17.359065	12732.722333	546.160937
72.872867	18.053421	12720.586222	542.992172
74.219915	17.356843	13644.387000	584.606882
74.969342	17.010798	14451.195667	539.114546
77.734261	17.705110	14674.500111	541.582722
78.700415	17.008621	15016.738444	541.582722
76.940478	17.356843	14848.774667	542.639873
80.977101	17.356843	15661.894111	584.953954
80.423497	16.314397	15554.610889	538.056118
80.301029	16.660442	14191.482889	542.287532
82.958473	16.660442	16021.608444	543.696641
82.823846	16.312307	16371.613889	538.761779
85.793470	15.964217	17526.486222	540.525187
86.333823	16.658308	17104.149556	585.647964
86.370737	16.310217	17254.637333	585.647964
87.279073	15.964217	18156.593111	541.935148
87.437474	15.962171	18229.895222	539.467270
88.349027	15.962171	18132.320889	541.935148
90.835277	16.310217	18516.792889	541.582722
92.279742	16.308126	18771.651222	585.994902
91.299956	15.614169	18437.665444	542.992172
91.827204	16.308126	18877.963556	586.341796
91.391904	15.960124	19359.039000	543.344427
91.822505	15.960124	19591.566889	539.819951
90.656768	15.960124	18907.575667	539.114546
89.766703	15.612166	19123.598444	586.688646
89.478527	15.612166	19304.183778	545.105066
92.097829	15.612166	19703.704556	542.639873
93.213249	15.958077	19395.447333	540.877741
93.354107	16.306035	19375.544111	540.172591
93.255861	15.958077	19612.441000	545.105066
95.052645	15.264252	20048.370111	541.230253
93.066565	15.610163	19629.917000	539.467270
