power (mW)	FWHM	peak value	peak location
-0.080816	20.098346	913.121000	542.287532
-0.082715	35.036788	930.597000	542.639873
-0.078275	146.689498	950.500222	552.839156
-0.070446	140.081985	926.228000	539.467270
-0.047762	130.908540	963.121778	541.230253
-0.047174	136.080306	936.907778	544.400939
-0.017918	33.732234	906.324778	540.525187
0.019606	20.723154	947.102111	540.172591
0.091352	25.574946	938.849556	539.467270
0.107394	128.554935	989.821222	545.457066
0.162834	120.940894	943.704000	540.877741
0.226846	121.707260	965.549000	543.344427
0.229838	130.747645	967.490778	539.114546
0.329532	100.509119	933.509667	547.919865
0.359475	149.621381	950.985667	542.992172
0.407779	148.425036	970.403444	540.877741
0.510115	28.234731	925.257111	540.877741
0.589080	62.432653	908.752000	540.172591
0.752169	150.042608	928.655222	538.761779
0.747413	47.050049	936.907778	539.819951
0.887330	145.238392	935.451444	542.639873
0.983399	159.136499	968.461667	547.919865
1.137987	30.298923	914.577333	542.639873
1.243974	148.178296	896.130444	544.048811
1.382653	114.910236	962.150889	548.271522
1.486665	64.629729	1135.454556	540.525187
1.684726	15.338205	1216.523778	542.992172
1.760505	6.973688	1550.509556	548.271522
1.806535	6.275529	1944.205000	572.431471
2.027039	4.880968	2849.073444	542.287532
2.169793	4.532614	3850.059889	544.753024
2.380462	5.578952	3354.421111	572.082808
2.423947	4.532614	4565.605000	543.696641
2.551830	4.532614	4767.064444	539.467270
2.740214	4.532614	5432.123333	542.992172
2.900089	4.532042	6376.312778	540.172591
3.045922	4.183688	7573.904222	547.568165
3.401883	4.183688	8562.754556	546.512808
3.381154	4.183688	8753.048778	542.992172
3.655191	3.834805	10395.307333	544.400939
3.717688	3.834805	11944.846000	538.761779
3.964866	3.834805	13010.882000	544.400939
4.163142	3.834805	12984.182556	539.114546
4.227285	3.834805	13516.229667	545.457066
4.485021	3.834805	16899.777444	544.753024
4.698127	3.834805	17286.676667	547.919865
4.785777	3.834805	18822.137444	543.344427
4.966690	3.834805	19038.645667	540.172591
5.227411	3.834322	23502.792778	540.877741
5.299521	3.834805	22286.754444	542.992172
5.532624	3.834805	22644.041556	540.525187
5.691980	3.485967	26626.627778	544.400939
5.874863	3.485967	26564.490889	540.877741
5.898147	3.485967	27510.136667	539.467270
5.992549	3.485967	30410.181778	572.780089
6.372260	3.834805	31441.265778	550.380563
6.558428	3.485967	32590.798222	541.230253
6.792303	3.834805	34701.025222	539.819951
7.018822	3.834805	35741.332667	545.457066
7.147198	3.485967	38408.364444	544.753024
7.131597	3.485967	36300.564667	542.639873
7.400870	3.834805	37228.734444	547.216422
7.911656	3.834805	39374.884333	543.344427
7.781596	3.834805	39190.415444	541.582722
8.021761	3.834805	40238.975444	543.696641
8.300483	3.834805	42558.429000	572.780089
8.384073	3.834805	41983.177333	538.761779
8.513087	3.834805	44194.862222	537.703224
8.646219	3.834805	43789.516111	539.114546
9.115079	3.834805	43155.040222	544.753024
9.277219	3.834805	46641.016778	541.230253
9.314434	3.834805	41189.961111	543.344427
9.340866	3.834805	46207.029444	541.230253
9.541778	3.834805	46474.023889	538.408970
9.899181	3.834805	44330.786667	547.568165
9.885597	3.834805	47734.723111	541.582722
9.950700	3.834805	44265.251667	538.761779
10.291142	3.834805	42603.575333	544.048811
10.326244	3.834805	42104.053000	572.431471
10.427212	3.834805	42018.614778	542.992172
10.773105	3.834805	44466.225667	541.230253
10.892188	3.834805	43361.354111	572.431471
10.977551	3.834805	44182.726111	545.105066
11.068530	3.834805	42969.115000	538.761779
11.172608	3.834805	42905.521778	544.400939
11.153337	4.183160	41284.137333	542.287532
11.401329	3.834805	41003.065000	543.696641
11.411607	3.834805	42380.270889	544.400939
11.584448	3.834805	40178.294889	543.344427
11.362384	3.834805	40254.509667	544.753024
11.666266	3.834805	41921.040444	542.639873
11.957209	4.183688	39180.706556	542.992172
11.914113	3.834805	42351.629667	542.639873
11.803604	3.834805	40670.535556	539.467270
12.200545	4.183688	40543.834556	572.431471
12.190086	4.183688	41136.076778	540.877741
11.939175	4.183688	40792.382111	572.431471
12.166897	3.834805	44774.482889	539.114546
12.105123	4.183688	44478.361778	544.048811
12.163925	4.183688	39861.785111	541.230253
11.885715	4.183688	40190.431000	542.287532
12.158844	4.183688	43208.439111	538.761779
12.327925	4.183688	42058.421222	572.431471
11.985501	4.183688	40704.031222	539.819951
11.990961	4.183688	41035.104333	572.431471
