power (mW)	FWHM	peak value	peak location
0.080670	154.120808	77.671111	0.000000
0.088857	78.323086	78.156556	0.000000
0.130472	11.531853	86.894556	0.000000
0.163739	75.232447	92.719889	0.000000
0.227591	8.726424	106.797778	0.000000
0.234803	103.166421	116.992111	0.000000
0.258257	2.791582	137.866222	0.000000
0.406500	17.414362	175.245444	0.000000
0.435081	20.560597	197.575889	0.000000
0.501772	28.847116	236.411444	0.000000
0.603734	24.355300	262.625444	0.000000
0.695605	15.665998	305.344556	0.000000
0.743036	20.537207	321.849667	0.000000
0.788346	20.192960	367.966889	572.780089
0.941682	18.455711	469.910222	572.431471
1.033896	22.276211	516.512889	572.082808
1.147936	16.370544	606.805556	571.734101
1.310108	16.370544	606.805556	571.734101
1.294721	17.069315	698.554556	571.385351
1.486271	14.637326	858.751222	571.385351
1.620859	13.942073	915.062778	571.385351
1.640617	14.982994	990.792111	571.385351
1.871003	14.291524	1122.347556	571.036557
2.035102	13.942073	1212.640222	571.036557
2.027790	13.596094	1260.699222	571.036557
2.074580	13.246643	1437.401000	571.036557
2.457382	12.203167	1714.104333	570.687718
2.537001	11.855253	1710.706222	571.036557
2.673762	12.552618	1848.087000	570.687718
2.876652	11.855253	2040.323000	570.687718
3.034696	11.507295	2244.209667	570.687718
3.282119	11.856746	2315.084556	570.687718
3.322029	11.855253	2328.191556	570.687718
3.452396	11.159293	2518.485778	570.687718
3.566671	10.811246	2747.615556	570.687718
3.847944	11.160697	2911.210333	570.687718
4.016765	11.508744	2665.090000	570.687718
4.164071	11.159293	3196.166222	570.687718
4.397730	11.508744	3282.089889	570.687718
4.530957	11.856746	3201.991556	570.687718
4.643494	10.811246	3601.997778	570.687718
4.979104	10.811246	3812.680667	571.036557
5.249154	10.463156	4174.822222	571.036557
5.306079	10.811246	3993.266000	571.036557
5.668764	11.159293	4235.502778	571.036557
5.670925	11.507295	4170.938667	571.036557
5.893599	10.811246	4563.177778	571.036557
6.223630	11.159293	4617.062111	571.036557
6.341211	11.159293	4754.928333	571.036557
6.527910	11.159293	4797.647444	571.036557
6.608746	11.159293	4887.940111	571.036557
7.012798	11.159293	5127.264222	571.385351
7.092849	11.507295	5243.770889	571.036557
7.277937	11.507295	5391.831444	571.385351
7.558300	11.507295	5496.687444	571.385351
7.669302	10.809886	5604.941556	571.385351
7.679733	11.855253	5436.492333	571.385351
7.772348	10.809886	5860.770778	571.385351
8.038658	11.157888	5887.470222	571.385351
8.197178	11.157888	6092.327778	571.385351
8.685515	11.157888	6396.216000	571.734101
8.600896	11.505846	6103.493000	571.734101
8.871988	11.505846	6232.621222	571.734101
9.002932	11.505846	6377.283667	571.734101
9.222252	11.156482	6409.323000	571.734101
9.313620	11.505846	6652.530667	571.734101
9.679002	11.156482	6923.894111	572.082808
9.737432	11.504396	6937.001111	572.082808
9.770794	11.504396	6570.490556	572.082808
9.765062	10.807163	7004.477889	572.082808
10.242084	11.504396	6882.145889	572.082808
10.135386	11.504396	6891.854778	572.082808
10.465156	11.504396	7075.352778	572.082808
10.467088	11.155077	7274.870444	572.082808
10.896504	11.504396	7191.374000	572.082808
10.926085	11.155077	7302.540778	572.431471
11.005928	11.852266	6547.674667	572.082808
11.096277	11.502946	7290.890111	572.431471
10.989392	11.502946	7365.163111	572.431471
11.319820	11.155077	7613.225222	572.431471
11.409490	11.155077	7683.614667	572.431471
11.445352	11.502946	7630.215778	572.431471
11.462479	11.502946	7675.362111	572.431471
11.784110	11.502946	7682.158333	572.431471
11.631559	11.502946	7771.965556	572.431471
11.759859	11.502946	8020.998556	572.431471
11.976025	11.153670	8072.455667	572.431471
12.045766	11.153670	8121.485556	572.780089
12.260489	11.502946	8245.273889	572.431471
12.393392	11.153670	8268.575222	572.431471
12.052511	11.502946	7884.588667	572.431471
12.529103	12.200091	8047.698000	572.431471
12.451989	11.850772	7866.627222	572.431471
12.696628	11.850772	8034.591000	572.780089
12.424988	11.153670	8162.262889	572.431471
12.452555	11.850772	7937.016667	572.431471
12.539092	11.850772	7864.685444	572.780089
12.357084	11.850772	7920.997000	572.780089
12.595124	11.850772	8202.554778	572.780089
12.498489	11.850772	7890.414000	572.780089
12.376306	11.850772	7970.512333	572.431471
12.467136	11.850772	8066.630333	572.431471
12.607697	11.850772	8139.447000	572.780089
12.454960	11.850772	7841.869556	572.780089
12.228468	11.850772	7935.560333	572.780089
