power (mW)	FWHM	peak value	peak location
-0.087251	77.324695	912.150111	542.287532
-0.083350	31.359970	926.713444	543.696641
-0.073902	129.366731	958.752778	542.639873
-0.063882	155.779665	933.024222	541.582722
-0.020483	101.401580	926.713444	540.525187
-0.008277	94.396866	923.800778	547.216422
0.021639	135.439797	942.247667	540.877741
0.073516	152.332062	887.392444	540.172591
0.143695	160.194672	941.276778	564.401146
0.209360	153.432129	1012.637111	544.753024
0.213347	132.814198	1040.307444	542.992172
0.308109	26.182318	1376.720444	544.753024
0.375322	22.699930	1537.402556	540.877741
0.396345	15.725228	2225.762778	538.761779
0.492481	8.031331	4170.453222	541.935148
0.607439	6.283423	5709.797556	540.525187
0.630731	4.886495	7884.103222	544.048811
0.798439	4.886495	13055.057444	542.992172
0.892358	4.537175	15954.131667	540.525187
0.890863	4.537175	17250.268333	569.291927
1.003634	4.537175	19082.821111	540.172591
1.092490	4.537175	27203.335778	569.291927
1.324099	4.537175	33703.922333	540.172591
1.344582	4.537175	35326.763111	540.877741
1.605377	4.187899	43826.895333	540.172591
1.651380	4.537175	39916.154889	538.761779
1.779134	4.537175	42077.839000	569.291927
1.828361	4.187899	45713.817889	541.230253
2.093908	4.537175	47164.811333	538.761779
2.257555	4.537175	45200.217667	543.696641
2.459181	4.537175	47320.153556	569.640940
2.484989	4.537175	48317.256444	569.640940
2.655358	4.187899	51484.296000	569.640940
2.802388	4.187899	51377.012778	569.640940
2.932928	4.187899	49426.982444	543.344427
3.227999	4.885881	47642.488667	542.287532
3.239040	4.536605	47124.519444	569.640940
3.544355	4.536605	54091.618111	541.582722
3.511752	4.536605	54091.618111	541.582722
3.569172	4.885881	50457.581000	569.640940
3.696031	4.885881	57068.848889	539.819951
3.978942	5.235201	59949.476222	543.344427
4.280873	5.235201	61968.925111	569.640940
4.391271	5.235201	61303.866222	569.640940
4.708014	5.583864	62276.211444	569.640940
4.857248	5.583864	58361.102000	569.640940
5.225080	5.583864	54280.456000	569.640940
5.197772	5.583864	48236.187222	569.640940
5.410192	5.583864	41960.361444	569.640940
5.621031	5.583864	43436.112556	569.640940
5.819411	5.933227	39026.335222	569.640940
5.689287	6.281846	35925.316111	542.992172
6.094526	6.281846	30424.745111	569.640940
6.145948	6.631253	27187.801556	569.640940
6.331926	6.631253	26391.187222	543.344427
6.421934	6.979828	24735.821667	540.525187
6.804033	6.979828	25953.801778	569.640940
6.962796	6.979828	24945.048222	569.640940
7.233428	6.979828	23304.246000	539.467270
7.199621	7.677810	21535.771889	569.640940
7.411661	7.677810	21292.564222	569.640940
7.844051	8.027304	19503.216000	569.640940
7.642499	9.073772	15857.528222	541.230253
7.876932	8.725329	16211.902667	541.582722
8.134667	9.073772	16199.766556	542.992172
8.247484	9.073772	16251.709111	538.761779
8.320097	9.771752	15708.496778	569.640940
8.440633	9.771752	15233.732111	569.640940
8.615778	9.771752	14868.192444	542.287532
8.656796	10.818043	13692.446000	543.344427
8.808476	10.469733	14395.369556	540.525187
9.006169	11.864202	12202.131556	569.640940
9.102845	11.864202	12340.483222	569.640940
9.730681	11.515979	13964.294889	541.582722
9.552549	12.212380	12329.803444	541.230253
9.691131	12.560515	11907.952222	569.640940
9.503811	13.606364	11148.231667	543.344427
9.950933	13.606364	11429.789444	540.877741
9.983118	13.606364	11324.933444	543.696641
10.485054	13.606364	11836.591889	569.640940
10.327462	14.302324	10863.761222	541.230253
10.320232	14.999994	10500.163333	569.640940
10.254266	15.695689	10009.864444	569.989910
10.747540	15.347864	10719.584222	540.525187
10.655687	15.695689	10358.413556	569.989910
10.688469	15.695689	10557.931222	540.172591
10.984343	15.695689	10741.429222	569.989910
11.072919	16.391208	9938.989556	569.989910
11.374821	16.738900	9982.679556	541.582722
11.278213	17.783953	9346.747333	542.639873
11.332213	18.131513	9333.154889	569.989910
11.193764	18.479028	8264.206222	538.761779
11.513268	18.479028	9238.007778	538.761779
11.352697	19.523770	8879.264333	570.338836
11.486987	19.173927	8824.894556	570.338836
11.560063	19.173927	8783.146333	570.338836
11.386235	19.173927	8715.184111	570.338836
11.509972	20.218491	8432.170000	570.338836
11.495873	20.218491	8557.900111	539.114546
11.229599	20.565784	8194.787667	543.696641
11.308787	20.913034	8276.827778	539.114546
11.473264	20.215941	8330.712111	570.338836
12.023259	20.215941	8330.712111	570.338836
11.924740	21.260239	8326.343111	570.687718
12.017736	20.563191	8442.364333	543.344427
