power (mW)	FWHM	peak value	peak location
-1.154782	46.497003	799.527000	542.639873
-1.138496	95.100227	811.177667	540.172591
-1.047523	159.949285	749.040778	540.877741
-0.991725	60.277464	813.119444	541.230253
-0.925381	157.021302	783.507333	540.172591
-0.564455	140.749505	793.216222	543.696641
-0.187521	149.236469	815.546667	544.753024
-0.219453	150.705309	785.934556	541.230253
0.103539	133.236843	788.847222	540.172591
0.124110	148.689359	792.730778	540.877741
0.972872	144.595725	846.129667	540.877741
1.178772	151.199786	868.460111	539.467270
1.664647	146.408759	946.131222	541.230253
2.222908	110.224692	1018.947889	581.828709
2.842230	127.177021	1091.279111	542.287532
3.294842	82.777498	1175.746444	544.048811
3.744643	67.762926	1238.854222	544.400939
4.509886	59.839259	1344.681111	539.819951
4.647325	56.409916	1410.216111	543.344427
5.651754	51.585318	1583.519778	543.344427
6.148354	49.857622	1665.559889	539.819951
7.386679	47.106193	1839.834444	540.525187
7.442800	43.665224	1854.397778	545.105066
8.828665	39.177948	2186.927222	541.230253
10.128490	36.073928	2451.494444	541.582722
11.109606	34.346280	2611.205667	539.819951
12.085668	32.273031	2868.976667	576.611992
13.537190	31.237999	2949.075000	545.105066
13.482555	32.617951	2722.857889	550.029164
15.014807	32.617951	2722.857889	550.029164
15.828787	29.155522	3408.305444	542.992172
16.836081	28.119678	3622.386444	544.048811
18.418803	27.770752	3740.349444	543.344427
19.053090	26.734504	3870.448556	541.230253
19.860333	25.694564	4053.461111	539.467270
22.389225	23.617296	4499.099111	539.467270
23.780213	24.654489	4471.914222	537.350288
23.771209	23.614277	4552.983444	546.160937
25.661188	23.268501	4787.938556	542.639873
26.512438	22.573930	5019.981000	542.639873
28.288047	21.187492	5512.707111	542.639873
29.231767	21.187492	5756.400222	541.935148
30.697179	21.533447	5844.751111	579.743217
32.013769	21.533447	5844.751111	579.743217
34.443920	20.492829	6145.241222	545.457066
35.021729	20.144210	6602.529889	540.525187
36.303009	20.144210	6788.455111	539.114546
38.123453	20.490210	6962.244222	540.877741
38.528023	19.449590	7352.056111	539.467270
39.548973	19.795635	7483.611556	581.133722
40.454951	19.447105	7528.272444	581.481238
41.633679	19.447105	7739.440778	544.753024
45.701468	19.447105	8359.353333	538.761779
45.171909	18.752573	8334.110222	541.230253
48.029829	18.752573	8907.420111	543.344427
49.414139	18.752573	8980.722222	539.819951
50.359554	17.709641	9425.389333	540.877741
50.512943	18.750175	9013.247000	539.114546
52.944985	18.750175	9624.421556	582.523519
53.363183	18.055731	9825.881000	543.344427
55.502829	18.055731	10223.945444	541.935148
57.895173	17.361286	10496.279778	539.467270
58.393612	17.361286	10496.279778	539.467270
61.136145	17.359065	11188.038111	542.287532
62.057689	17.359065	11667.657222	539.467270
64.113101	17.359065	11781.251222	542.639873
65.003319	17.010798	12062.809000	540.172591
66.690410	16.316486	12527.864778	539.467270
68.466928	17.356843	12346.308556	540.525187
69.859730	17.356843	12399.707444	584.259766
69.257350	17.356843	12399.707444	584.259766
71.080596	17.008621	12681.750667	547.568165
72.036743	17.008621	13022.047222	544.400939
73.569150	16.660442	13531.763889	538.761779
76.585729	16.660442	13908.468778	543.344427
75.846250	15.966262	14160.414444	543.344427
77.789116	16.312307	14379.835333	540.877741
79.829051	15.964217	15103.633000	585.300981
78.941120	16.312307	14591.489111	545.105066
79.608700	16.658308	14440.030444	539.467270
80.773632	16.658308	14429.836111	585.300981
82.289800	15.962171	15184.702222	585.647964
83.540025	16.310217	14957.028778	585.994902
86.538130	15.962171	15391.987000	539.467270
86.888027	16.656173	15006.058667	544.048811
85.750933	16.308126	15220.139667	541.582722
86.614608	15.962171	15304.607000	544.048811
90.206034	16.308126	15661.894111	539.819951
88.374139	15.614169	15256.548000	540.525187
89.186557	16.308126	15153.148333	585.994902
90.238587	15.960124	15429.366222	543.696641
91.346277	16.308126	15652.185222	539.467270
88.797095	15.960124	15343.442556	544.048811
90.629955	16.306035	15285.674667	538.761779
89.831058	16.306035	15013.825778	543.696641
92.312507	16.306035	15281.305667	542.639873
91.950367	16.306035	15427.909889	586.341796
94.734454	15.958077	16452.683111	587.035450
93.938072	15.958077	15809.954667	544.400939
94.865542	15.264252	16233.747667	542.639873
97.350167	15.958077	15839.081333	542.639873
92.823109	16.303942	15758.012111	543.696641
95.601845	15.958077	16734.726333	540.525187
95.247181	15.610163	16801.232222	542.992172
94.110350	15.610163	16570.646111	544.753024
