power (mW)	FWHM	peak value	peak location
0.045258	112.591152	72.331222	0.000000
0.056781	41.766978	106.312333	0.000000
0.055553	104.739254	99.516111	0.000000
0.107289	108.128910	114.564889	0.000000
0.151297	46.371779	71.360333	0.000000
0.205767	115.142174	106.797778	0.000000
0.248374	76.893482	80.583778	0.000000
0.304588	51.613602	74.273000	0.000000
0.355372	17.125152	95.632556	0.000000
0.415191	33.021863	88.350889	0.000000
0.555757	83.225715	104.856000	0.000000
0.549059	24.165937	95.632556	0.000000
0.707280	8.722042	126.215556	0.000000
0.807777	5.942885	129.128222	0.000000
0.820001	18.488333	119.904778	0.000000
0.977698	14.675969	162.138444	0.000000
1.053607	12.577841	189.323333	0.000000
1.147374	8.389428	211.168333	0.000000
1.291106	15.717366	253.887444	0.000000
1.410888	12.574696	342.238333	564.051477
1.556756	8.042375	401.948000	563.701765
1.596788	6.992936	488.357111	563.701765
1.792556	6.993807	644.670222	563.701765
1.907325	5.945848	749.040778	563.352009
2.147126	6.295211	940.791333	563.352009
2.159588	5.595744	995.646556	563.352009
2.341688	5.595744	1109.240556	563.352009
2.449357	5.595744	1204.873111	563.352009
2.718142	5.246337	1603.908444	563.352009
2.740916	5.246337	1746.629111	563.352009
2.984900	4.896886	2102.459889	563.352009
3.108989	5.596441	2311.686444	563.352009
3.455993	4.896886	2726.256000	563.352009
3.383755	4.896886	2681.109667	563.352009
3.674259	4.896886	3352.479333	563.352009
3.858945	5.246990	3464.617000	563.352009
4.115387	4.896886	3772.388778	563.352009
4.219781	5.246990	3542.288111	563.352009
4.320030	5.246990	4480.652222	563.002209
4.668085	5.246990	4993.281556	563.002209
4.842275	5.246990	5277.266556	563.002209
4.881199	4.547392	5538.921111	563.352009
5.010306	4.547392	5798.148444	563.002209
5.314055	4.897496	6457.867444	563.002209
5.490270	4.897496	6777.289889	563.002209
5.813242	4.897496	7456.912111	563.002209
5.801443	4.897496	7502.058444	563.002209
6.135554	4.897496	8114.203889	563.002209
6.295999	5.247643	8524.404444	563.002209
6.413541	4.897496	9273.445222	563.002209
6.640395	4.547957	10449.677111	562.652366
6.928963	4.547957	10440.939111	562.652366
7.020992	4.547957	11438.042000	562.652366
7.254774	4.547957	11425.905889	563.002209
7.671574	4.898105	12379.318778	562.652366
7.615826	4.547957	12324.463556	562.652366
7.925597	4.898105	12838.063778	562.652366
7.819691	4.898105	13150.204556	562.652366
8.366708	4.898105	13968.178444	562.652366
8.465403	4.898105	13930.799222	562.652366
8.421299	4.548523	14197.308222	562.652366
8.538392	4.548523	14457.991889	562.302480
8.940641	4.898714	15171.595222	562.302480
9.090113	4.898714	15470.143556	562.302480
9.346987	4.898714	15207.518111	562.302480
9.584350	4.898714	15844.421222	562.302480
10.124640	4.898714	17031.818333	562.302480
9.919408	4.898714	16652.686222	562.302480
9.888839	4.549088	16248.311000	562.302480
10.021534	4.898714	16423.071000	562.302480
10.282382	4.898714	16972.594111	562.302480
10.573502	4.549088	17478.912667	562.302480
10.644827	4.549088	17335.706556	561.952550
10.813195	4.549088	17437.649889	561.952550
10.641350	4.549088	17691.051889	561.952550
10.846026	4.899322	17893.967667	561.952550
11.234449	4.549088	18844.953333	561.952550
11.358111	4.899322	17864.355556	561.952550
11.398797	4.899322	18599.803889	561.952550
11.778044	4.899322	18163.389333	561.952550
11.836787	4.899322	18111.932222	561.952550
11.896924	4.899322	17698.333556	561.952550
11.938749	4.899322	17992.512889	561.952550
11.915338	4.899322	17484.738000	561.952550
12.284975	4.899322	17545.904000	561.952550
12.433652	4.899322	17540.564111	561.952550
12.546534	4.899322	17241.044889	561.952550
12.404866	4.899322	15699.758778	561.952550
12.159157	4.899322	15228.877667	561.952550
12.292881	4.899322	15984.229222	561.952550
12.547115	4.899322	16160.931000	561.952550
12.882016	4.899322	15289.558222	561.952550
12.923229	4.899322	14548.284556	561.952550
12.706302	4.899322	14519.643333	561.952550
12.754809	4.899322	14128.375111	561.952550
12.799721	4.899322	14980.330111	561.952550
12.728054	4.899322	13952.644222	561.952550
12.917821	4.899322	13686.620667	561.952550
12.831633	4.899322	12956.512222	561.952550
12.568231	4.899322	12197.277111	561.952550
13.075069	5.248948	12133.683889	561.952550
12.835362	4.899322	11897.272444	561.952550
12.576428	4.899322	11749.211889	561.952550
12.690408	4.899322	11528.334667	561.952550
12.692556	4.899322	11549.694222	561.952550
