power (mW)	FWHM	peak value	peak location
-0.018761	61.459990	165.051111	0.000000
-0.017580	49.970782	206.313889	0.000000
-0.017174	23.766905	162.623889	0.000000
-0.016088	145.123317	162.623889	0.000000
-0.016765	113.979288	174.760000	0.000000
-0.011026	91.534551	179.614444	0.000000
-0.003522	3.871054	230.586111	0.000000
0.002217	23.605216	196.605000	0.000000
0.004810	153.764885	177.187222	0.000000
0.022178	41.537756	220.877222	0.000000
0.034804	21.995970	269.421667	0.000000
0.046032	14.357771	228.158889	0.000000
0.063192	22.343707	250.003889	0.000000
0.086058	9.790103	274.276111	0.000000
0.114878	51.645240	281.557778	0.000000
0.119832	17.449504	373.792222	0.000000
0.138294	7.664285	368.937778	0.000000
0.160608	15.715399	361.656111	0.000000
0.192921	21.591025	446.608889	0.000000
0.197646	15.351723	419.909444	566.847607
0.245642	54.060873	456.317778	568.593768
0.260392	31.317750	466.026667	571.734101
0.285662	32.751040	516.998333	569.640940
0.306209	15.015061	631.077778	569.989910
0.360791	33.063860	611.660000	569.640940
0.373370	32.029916	589.815000	570.338836
0.412623	32.033972	684.476667	568.942870
0.440762	42.069709	757.293333	566.847607
0.512228	37.921794	783.992778	570.338836
0.534595	40.323676	817.973889	602.250525
0.555239	31.341569	934.480556	564.051477
0.653759	34.819438	975.743333	565.100353
0.655339	38.612671	1033.996667	564.401146
0.679171	32.038027	1213.611111	564.051477
0.770436	15.365208	1728.182222	563.701765
0.836426	11.531853	2089.838333	563.352009
0.845456	11.880560	2344.696667	563.352009
0.920609	5.596441	3504.908889	563.352009
0.967948	5.596441	3706.368333	563.352009
1.009673	5.246990	4672.402778	563.352009
1.125818	4.547392	6339.904444	563.352009
1.138398	4.547392	7366.619444	563.002209
1.236795	4.547392	8543.822222	563.352009
1.241205	4.197331	8941.886667	563.352009
1.343271	4.547392	10944.345000	563.352009
1.408641	4.547392	11461.343333	563.002209
1.461240	4.547392	12898.258889	563.352009
1.474871	4.547392	13529.336667	563.002209
1.535619	4.547392	15255.091667	563.002209
1.616951	4.197854	17036.672778	563.002209
1.652232	4.547392	17624.060556	563.002209
1.660635	3.847793	18643.493889	563.002209
1.690485	4.197854	21165.377778	563.002209
1.856037	4.197854	22451.805556	563.002209
1.846099	4.197854	23238.225556	563.002209
1.940112	4.197854	26993.138333	563.002209
1.984466	4.197854	25454.279444	563.002209
2.043431	4.197854	31255.340556	563.002209
2.130889	4.197854	32177.685000	563.002209
2.251171	4.197854	37915.638333	563.002209
2.298437	4.197854	37238.443333	563.002209
2.351863	4.197854	36891.350556	563.002209
2.339007	4.197854	36398.624444	563.002209
2.434713	4.197854	42175.413333	563.002209
2.562498	4.547957	43524.948889	563.002209
2.531865	4.547957	43524.948889	563.002209
2.674553	4.547957	45813.819444	563.002209
2.765649	3.848272	51440.120556	563.002209
2.833775	4.198376	50738.653333	562.652366
2.878380	4.198376	52367.319444	562.652366
2.990436	4.198376	55403.774444	562.652366
2.994824	4.198376	54651.335556	562.652366
3.043132	4.198376	55406.201667	562.652366
3.064480	4.198376	54644.053889	562.652366
3.185764	4.198376	60403.852222	562.652366
3.212058	4.898105	58945.091667	562.652366
3.203116	4.898105	60260.646111	562.652366
3.253511	4.548523	57653.809444	562.652366
3.354308	4.548523	57911.095000	562.652366
3.346460	4.548523	56559.132222	562.652366
3.380437	4.548523	59639.277222	562.652366
3.431835	4.548523	60525.213333	562.652366
3.548345	4.548523	60180.547778	562.302480
3.567513	4.548523	55474.163889	562.302480
3.544078	4.548523	61945.138333	562.302480
3.592242	4.898714	61899.021111	562.302480
3.703684	4.898714	61112.601111	562.302480
3.903354	4.898714	59379.564444	562.302480
3.804758	4.898714	58952.373333	562.302480
3.789568	4.898714	60316.472222	562.302480
3.861833	4.898714	58928.101111	562.302480
3.996460	4.898714	59090.725000	562.302480
4.021580	4.898714	59578.596667	562.302480
4.064419	4.898714	61352.896111	562.302480
4.077241	4.898714	59947.534444	562.302480
4.034956	4.898714	60323.753889	562.302480
3.989432	4.549088	57724.198889	562.302480
3.990923	4.549088	58571.299444	562.302480
4.001550	4.549088	58571.299444	562.302480
4.068092	4.898714	58639.261667	562.302480
4.096926	4.898714	61753.387778	562.302480
4.004433	4.549088	60862.597222	562.302480
3.992474	4.549088	60348.026111	562.302480
4.212851	5.248948	59068.880000	561.952550
4.126333	4.549088	55607.661111	562.302480
