power (mW)	FWHM	peak value	peak location
30.586484	8.029318	800.983333	568.244624
30.990387	8.029318	800.983333	568.244624
30.469717	7.332037	864.091111	568.244624
29.748151	9.079462	873.800000	568.244624
29.719324	9.777880	817.973889	568.244624
30.134880	10.128991	849.527778	567.895435
30.568163	7.331118	847.100556	568.244624
30.337117	7.680699	912.635556	568.244624
29.996372	10.130258	893.217778	568.244624
29.679647	7.332037	987.879444	567.895435
30.242879	9.428081	871.372778	568.244624
30.649453	8.378943	966.034444	568.244624
30.381000	8.378943	966.034444	568.244624
30.947849	8.030325	1053.414444	568.244624
31.185566	7.332955	1223.320000	568.244624
30.241531	8.031331	1160.212222	568.593768
30.161586	6.981580	1483.032778	568.593768
30.418005	6.633748	1762.163333	568.244624
30.180288	6.633748	1757.308889	568.593768
30.521999	6.632917	2101.974444	568.593768
30.560529	5.585965	2228.190000	568.593768
30.046923	5.236515	2987.910556	568.942870
30.380045	5.934716	3017.037222	568.593768
30.438614	5.934716	3017.037222	568.593768
30.537264	5.585965	3589.861667	568.593768
30.527142	6.284210	3371.411667	568.593768
30.177800	5.585965	4063.170000	568.593768
30.420680	6.633748	3400.538333	568.593768
30.499097	6.633748	3400.538333	568.593768
30.676735	5.585965	3983.071667	568.593768
30.150524	5.237171	4262.202222	568.593768
29.919660	5.935460	3640.833333	568.244624
30.233531	5.237171	4446.671111	568.593768
30.362490	5.935460	3910.255000	568.593768
30.076684	5.585965	4116.568889	568.593768
29.745093	5.935460	4014.625556	568.244624
29.925958	5.585965	4619.003889	568.593768
30.048456	5.586666	4114.141667	568.244624
30.051317	5.585965	4155.404444	568.593768
29.746041	5.585965	4514.633333	568.593768
29.104031	5.585965	4696.675000	568.593768
30.086428	5.935460	4599.586111	568.593768
29.839532	5.237171	4725.801667	568.244624
29.930932	5.585965	4218.512222	568.593768
29.852320	5.585965	4218.512222	568.593768
30.062380	5.935460	3810.738889	568.244624
29.680991	5.935460	3810.738889	568.244624
29.347869	5.934716	3747.631111	568.593768
29.454523	6.981580	3298.595000	568.942870
29.749100	5.933972	4288.901667	568.942870
29.794691	5.585265	4070.451667	568.942870
29.794133	5.236515	4058.315556	568.942870
30.007050	5.934716	3371.411667	568.942870
29.507562	5.235858	3337.430556	568.942870
29.589023	5.934716	3373.838889	568.942870
29.516520	5.585265	3301.022222	568.942870
29.771615	5.934716	3038.882222	568.593768
30.087383	5.585265	3218.496667	568.942870
30.104924	6.283423	2730.625000	568.942870
29.551811	5.585265	2456.348889	568.942870
29.665724	5.585265	2456.348889	568.942870
29.468824	6.632085	2216.053889	568.942870
30.058558	6.283423	2250.035000	568.593768
29.951325	5.585265	2361.687222	568.942870
28.924685	5.585265	1902.942222	568.942870
29.168715	6.283423	1771.872222	568.942870
29.085716	6.632917	1626.238889	568.942870
28.969150	6.284210	1344.681111	568.593768
29.233974	6.284210	1344.681111	568.593768
28.953692	5.585265	1597.112222	568.942870
29.319627	5.585265	1597.112222	568.942870
29.699309	6.632085	1284.000556	568.942870
29.337182	5.934716	1080.113889	568.942870
29.486383	5.934716	1169.921111	568.593768
29.764560	5.236515	1325.263333	568.593768
30.029559	5.934716	1084.968333	568.942870
29.757683	6.632917	1075.259444	568.593768
30.125535	7.332037	985.452222	568.593768
29.730410	7.678773	859.236667	569.291927
29.605063	12.566823	783.992778	568.942870
29.326501	5.934716	813.119444	568.942870
28.925823	6.633748	706.321667	568.942870
29.290246	5.583864	725.739444	568.942870
29.270974	5.934716	754.866111	568.593768
29.445742	10.121378	643.213889	568.593768
29.469209	8.029318	650.495556	568.593768
29.626803	8.029318	650.495556	568.593768
29.723911	14.986777	606.805556	568.593768
29.806333	11.176114	589.815000	568.593768
29.968700	16.047506	538.843333	568.942870
30.459039	5.590861	606.805556	568.244624
30.759917	5.590861	606.805556	568.244624
30.011250	18.479028	524.280000	568.593768
30.677687	5.587365	558.261111	568.593768
30.964255	9.079462	502.435000	568.593768
30.551769	12.918329	529.134444	568.593768
30.435936	20.215941	492.726111	568.593768
30.041585	10.118837	461.172222	568.244624
30.329666	15.365208	407.773333	568.244624
30.279305	12.908605	456.317778	568.244624
30.389402	10.468418	526.707222	568.593768
30.563405	6.633748	439.327222	568.593768
31.013094	14.296927	422.336667	568.593768
31.118788	5.235858	526.707222	568.244624
