power (mW)	FWHM	peak value	peak location
77.971106	5.246990	1907.796667	563.352009
77.636825	5.596441	1638.375000	563.352009
76.864875	5.596441	1638.375000	563.352009
76.678471	5.246990	1233.028889	563.002209
75.532572	6.296779	1201.475000	563.002209
76.472800	5.947328	1216.038333	563.002209
74.896269	5.947328	1216.038333	563.002209
75.086916	5.597833	1708.764444	562.652366
74.467796	4.548523	2614.118333	562.652366
74.371992	5.247643	2541.301667	562.652366
75.324433	4.548523	2601.982222	562.652366
74.678007	5.597833	2415.086111	562.652366
74.834295	5.597833	2415.086111	562.652366
75.044355	4.547957	4196.667222	562.652366
76.098088	4.197854	5723.390000	563.002209
75.279770	4.197854	6619.035000	563.002209
76.177635	4.547392	7611.768889	563.002209
76.360610	4.197854	8468.578333	563.002209
76.792383	4.197854	8468.578333	563.002209
74.551551	5.246990	8888.487778	563.002209
75.681019	4.197331	10216.178333	563.352009
75.758476	4.547392	9041.402778	563.002209
76.402770	4.897496	7274.385000	563.002209
74.643502	3.148195	10005.010000	563.352009
75.073139	3.847793	7888.472222	563.352009
74.966147	3.847793	7395.746111	563.352009
74.852025	4.547392	6026.792778	563.002209
77.188085	3.498212	7089.916111	563.002209
76.428743	3.498212	7089.916111	563.002209
76.639769	3.148195	5645.718889	563.352009
76.444371	3.498212	5114.157222	563.002209
75.667864	3.848272	4827.745000	563.002209
76.624885	3.498212	5104.448333	563.002209
76.861627	3.498212	4648.130556	563.002209
77.356934	3.498212	4648.130556	563.002209
78.010611	3.148195	7172.441667	563.352009
77.650562	3.148195	7172.441667	563.352009
76.994632	3.148195	14233.231111	563.002209
75.028319	3.148195	18580.386111	563.002209
76.198263	3.148195	18580.386111	563.002209
76.768367	2.798570	24381.447222	563.002209
76.299562	2.448901	29291.717778	563.002209
76.771574	2.448901	29291.717778	563.002209
75.500150	2.448901	25085.341667	563.002209
75.245247	2.448901	25085.341667	563.002209
74.483815	2.798918	21128.969444	562.652366
74.938853	3.148586	19145.928889	563.002209
74.654951	2.798570	19660.500000	563.002209
74.833160	2.798570	22954.240556	563.002209
74.424443	2.798221	29269.872778	563.352009
74.517384	3.148195	34061.209444	563.352009
76.375512	3.497776	32898.570000	563.352009
75.109990	3.848272	41879.292222	563.002209
75.232855	3.148586	39369.544444	563.002209
74.458995	3.498212	45044.390000	563.002209
75.264135	3.497776	27252.851111	563.352009
77.151658	3.847793	24061.053889	563.352009
76.348416	3.498212	21337.710556	563.002209
74.294180	3.847314	26762.552222	563.352009
74.229116	4.197331	19570.692778	563.352009
72.141661	4.197331	12245.336111	563.352009
73.153985	4.197854	14233.231111	563.002209
72.819320	4.197854	14233.231111	563.002209
74.293005	4.547957	9337.523889	563.002209
74.098213	4.547957	11822.999444	563.002209
74.231398	4.547392	9281.697778	563.352009
75.809815	5.247643	6616.607778	562.652366
75.540983	4.897496	7519.534444	563.002209
75.575337	5.247643	5740.380556	563.002209
74.194762	4.898105	4752.501111	562.652366
73.069078	4.897496	6109.318333	563.002209
73.299935	4.547392	6376.312778	563.002209
74.041355	3.847314	7492.835000	563.352009
74.664468	4.197854	7951.580000	563.002209
75.899274	4.197854	8623.920556	563.002209
75.559871	4.898105	9672.480556	562.652366
76.264847	4.197331	8553.531111	563.352009
76.074793	4.197331	8847.225000	563.352009
74.968411	4.197854	8296.245556	563.002209
74.968411	4.197854	9818.113889	563.002209
75.072027	3.848272	8961.304444	563.002209
76.373020	3.848272	8961.304444	563.002209
74.788317	3.498212	7386.037222	563.002209
76.254335	3.148195	7949.152778	563.002209
74.422947	3.148195	6072.910000	563.352009
74.352353	4.197331	3839.865556	563.352009
74.992061	3.848272	5148.138333	563.002209
76.346134	5.247643	4609.295000	563.002209
75.854641	3.847793	6036.501667	563.352009
76.198624	4.197854	4509.778889	563.002209
75.644354	4.547392	4934.542778	563.002209
76.360052	4.547957	5111.730000	563.002209
74.987300	4.197854	3313.158333	563.002209
75.070304	4.547392	3424.810556	563.002209
74.744225	4.197854	2740.333889	563.002209
75.041660	4.547957	1750.027222	563.002209
75.147767	4.198376	1893.233333	562.652366
75.509510	5.247643	1861.679444	563.002209
75.578951	5.247643	1611.675556	562.652366
75.832888	4.548523	2179.645556	562.652366
75.576646	4.548523	1473.323889	562.652366
75.149088	4.897496	1803.426111	562.652366
77.416259	5.246990	3383.547778	563.002209
76.366344	4.547957	4531.623889	563.002209
76.136831	4.898105	3589.861667	562.652366
74.019033	4.897496	5327.752778	563.002209
74.722298	4.897496	4160.258889	563.002209
