power (mW)	FWHM	peak value	peak location
77.778741	5.597833	3264.613889	562.652366
76.121563	5.597833	2364.114444	562.652366
76.391350	5.597833	2075.275000	562.302480
76.104747	5.947328	1924.787222	563.002209
75.727206	5.947328	1924.787222	563.002209
75.011130	5.598529	1660.220000	562.652366
76.350116	5.598529	1660.220000	562.652366
75.937848	4.547957	2317.997222	562.652366
75.296592	5.247643	2466.057778	563.002209
75.725478	5.597833	2686.935000	562.652366
75.559103	5.247643	2305.861111	562.652366
76.599873	5.247643	2885.967222	562.652366
76.429313	4.548523	2373.823333	562.652366
76.608447	5.597137	1371.380556	563.002209
76.525455	5.248295	1905.369444	562.302480
75.749704	5.947328	1415.070556	562.652366
75.008091	5.247643	1878.670000	562.652366
75.001980	5.247643	1830.125556	562.652366
75.093214	5.597833	1910.223889	562.652366
76.214876	5.247643	2691.789444	563.002209
76.272828	5.597833	3429.665000	562.652366
76.777697	4.897496	3786.466667	563.002209
76.508673	5.247643	3779.185000	563.002209
75.890496	5.597137	3898.118889	563.002209
76.367101	5.246990	3764.621667	563.352009
75.866678	5.597137	2881.112778	563.002209
75.751427	5.597137	2881.112778	563.002209
75.351924	5.597833	2291.297778	562.652366
76.349737	5.597833	2820.432222	562.652366
76.208590	5.947328	2650.526667	562.652366
76.280680	5.947328	2451.494444	563.002209
77.295862	5.947328	2451.494444	563.002209
77.901827	5.597833	2830.141111	562.652366
78.308408	5.597137	3305.876667	563.002209
78.733888	5.598529	2354.405556	562.302480
78.491936	4.897496	1563.131111	563.002209
76.566118	5.247643	1951.486667	563.002209
77.010842	5.947328	1281.573333	562.652366
77.442784	5.247643	1577.694444	562.652366
77.898969	4.197854	2174.791111	563.002209
76.768169	5.247643	1941.777778	563.002209
78.069553	4.547957	3368.984444	562.652366
77.189214	4.897496	2818.005000	563.002209
76.405850	4.197854	5065.612778	563.002209
76.796039	5.597137	3220.923889	563.002209
76.633273	5.246990	3524.326667	563.002209
76.715503	5.597137	3898.118889	563.002209
77.565271	5.246990	3660.251111	563.002209
76.728658	5.247643	3866.565000	563.002209
76.109159	5.597137	2703.925556	563.002209
76.035113	4.547392	3757.340000	563.002209
75.863441	4.547392	3070.436111	563.002209
76.294038	4.898105	2402.950000	563.002209
