power (mW)	FWHM	peak value	peak location
77.230821	6.296779	2114.110556	563.002209
77.184488	4.546826	4830.172222	563.352009
78.285742	5.246990	4291.328889	563.352009
77.057397	5.246990	4407.835556	563.002209
78.058086	5.246990	4407.835556	563.002209
77.492779	5.246990	4284.047222	563.352009
77.503058	5.946588	4070.451667	563.002209
76.689169	5.246337	4279.192778	563.352009
77.083748	4.896886	4434.535000	563.352009
78.163412	5.596441	3864.137778	563.352009
76.441327	5.596441	3864.137778	563.352009
76.306047	5.246990	3213.642222	563.352009
77.157753	5.597137	3148.107222	563.002209
77.215186	5.246990	2895.676111	563.352009
77.470264	5.246990	3218.496667	563.352009
77.368197	5.246990	2757.324444	563.002209
76.564372	5.246337	2941.793333	563.352009
76.311600	4.896886	2881.112778	563.352009
76.118123	5.246990	3080.145000	563.352009
75.680448	5.596441	2936.938889	563.352009
76.785160	5.596441	3453.937222	563.352009
77.017897	5.246990	3252.477778	563.352009
76.406781	5.246337	3269.468333	563.352009
76.232589	5.246337	3305.876667	563.352009
76.359062	5.596441	3521.899444	563.352009
76.825195	4.546826	3470.927778	563.701765
76.311611	5.597137	3126.262222	563.002209
76.014880	5.596441	3169.952222	563.352009
75.582019	5.246337	3259.759444	563.352009
76.707860	5.596441	3089.853889	563.352009
76.666649	4.896277	3669.960000	563.701765
77.358069	4.896277	4495.215556	563.701765
77.224540	5.246337	4216.085000	563.701765
77.048095	5.246337	4102.005556	563.701765
77.357102	4.896277	4106.860000	563.701765
77.570061	5.246337	3517.045000	563.701765
76.751353	5.596441	3276.750000	563.352009
77.715644	5.246337	3288.886111	563.352009
76.899235	4.546826	3648.115000	563.701765
77.466073	5.246337	3109.271667	563.352009
77.465311	5.246337	3109.271667	563.352009
78.368315	4.896277	3757.340000	563.701765
78.181928	5.246337	3196.651667	563.701765
78.073546	5.246337	3679.668889	563.701765
77.105086	5.595744	3099.562778	563.701765
77.019044	5.245684	3708.795556	563.701765
76.084543	4.896277	5094.739444	563.701765
76.793542	4.895667	4657.839444	564.051477
78.557985	5.595744	4092.296667	563.701765
79.434842	5.595744	4308.319444	563.701765
78.297761	4.896277	4740.365000	563.701765
77.706820	5.246337	4708.811111	563.701765
76.321297	5.596441	4400.553889	563.352009
