power (mW)	FWHM	peak value	peak location
76.284085	4.197854	3733.067778	563.002209
76.237571	5.597137	3543.744444	563.002209
75.191067	4.547392	3696.659444	563.002209
75.895665	5.246990	3618.988333	563.002209
74.438192	4.897496	3519.472222	563.002209
75.891841	4.547392	6728.260000	563.352009
75.786741	5.246990	5058.331111	563.002209
75.614429	4.546826	4910.270556	563.352009
75.843220	4.546826	4910.270556	563.352009
76.649687	4.896886	5514.648889	563.352009
76.099252	4.896886	7339.920000	563.352009
76.164689	4.896886	6126.308889	563.352009
74.473320	4.896886	6126.308889	563.352009
73.829788	5.246990	5398.142222	563.002209
73.782285	4.896886	6502.528333	563.352009
74.911973	4.547392	4135.986667	563.352009
75.194862	4.547392	2902.957778	563.352009
76.004612	5.247643	2968.492778	563.002209
76.743757	5.247643	2968.492778	563.002209
74.966298	4.547392	2786.451111	563.352009
75.961853	4.197854	3126.262222	563.002209
75.986492	4.547392	2648.099444	563.002209
76.424907	5.597137	3121.407778	563.002209
75.915694	4.897496	2351.978333	563.002209
74.416649	4.547392	2861.695000	563.002209
74.295868	4.897496	3752.485556	563.002209
74.907753	4.897496	2808.296111	563.002209
75.000466	4.898105	2563.146667	562.652366
74.285764	4.896886	2580.137222	563.002209
75.241079	4.897496	2842.277222	563.002209
76.447823	5.596441	1172.348333	563.002209
78.391779	4.897496	1941.777778	563.002209
76.477969	4.198376	1912.651111	563.002209
75.127912	4.898105	3485.491111	562.652366
74.466632	4.547392	1618.957222	563.002209
74.102829	5.946588	941.762222	563.002209
73.111994	4.198376	1497.596111	562.652366
75.119321	4.197854	1966.050000	563.002209
75.470976	4.197854	3114.126111	563.002209
74.792677	4.897496	4495.215556	563.002209
74.898940	4.897496	3798.602778	563.002209
75.331121	4.547392	3327.721667	563.002209
75.498427	3.847793	5466.104444	563.352009
77.166530	5.597137	2757.324444	563.002209
77.506719	5.597137	1859.252222	563.002209
77.269366	4.198376	3133.543889	562.652366
77.973981	4.897496	2376.250556	563.002209
77.441084	5.597137	1594.685000	563.002209
78.586384	4.897496	2325.278889	563.002209
78.709825	3.847793	2439.358333	563.352009
77.003229	5.248295	3099.562778	562.652366
76.559058	4.897496	2148.091667	563.002209
78.534335	4.547957	2575.282778	563.002209
75.746269	4.547392	2407.804444	563.002209
