power (mW)	FWHM	peak value	peak location
74.518909	4.897496	6941.855556	563.002209
74.704201	5.246990	6305.923333	563.002209
74.695772	4.547392	6686.997222	563.002209
74.425212	4.547392	5439.405000	563.352009
75.861689	4.547392	5439.405000	563.352009
75.925043	4.546260	5742.807778	563.701765
74.332720	4.547392	5337.461667	563.352009
75.445190	5.246990	4733.083333	563.002209
78.879017	4.546826	4606.867778	563.352009
79.243287	4.546260	7500.116667	563.701765
77.393180	4.896277	5718.535556	563.701765
77.240355	4.896277	5718.535556	563.701765
77.842141	5.246337	4869.007778	563.352009
77.299325	5.246337	5162.701667	563.352009
77.427708	4.546260	3269.468333	563.701765
77.497377	4.197331	3767.048889	563.352009
77.288429	5.595744	2628.681667	563.701765
77.384408	5.246337	2725.770556	563.701765
76.183182	4.546260	1201.475000	564.051477
76.005171	4.896277	3072.863333	563.352009
78.370981	4.896277	2861.695000	563.701765
77.678415	4.546260	3291.313333	563.701765
77.399850	4.546260	3291.313333	563.701765
76.838717	4.896277	2951.502222	563.701765
76.578511	4.546826	3427.237778	563.352009
75.794727	4.546260	2919.948333	563.701765
76.376286	4.546260	2919.948333	563.701765
76.486165	5.246337	2089.838333	563.701765
75.737521	4.546260	2978.201667	563.701765
75.233809	6.644531	1711.191667	563.352009
75.749872	5.246337	2968.492778	563.701765
76.635921	3.496905	2665.090000	564.051477
77.106437	3.496905	2665.090000	564.051477
77.388814	4.546260	4679.684444	564.051477
76.764339	4.546260	3614.133889	563.701765
74.626511	4.546826	5349.597778	563.352009
74.531313	4.196286	4677.257222	564.051477
73.979725	4.546260	3594.716111	563.701765
74.479420	4.546260	4560.750556	563.701765
76.386175	4.546260	3519.472222	563.701765
76.173822	3.496470	5228.236667	564.051477
75.803336	4.546260	4563.177778	563.701765
76.386379	4.195763	5636.010000	564.401146
76.335261	4.546260	5750.089444	564.051477
76.391525	4.895667	4228.221111	564.051477
75.635430	4.196286	4172.395000	564.051477
77.260414	4.546260	4575.313889	564.051477
76.482754	4.196286	7757.402222	564.051477
75.071980	4.196286	5572.902222	564.051477
75.494062	4.196286	5674.845556	564.051477
74.848614	4.546260	8786.544444	563.701765
77.803398	3.846356	10354.530000	564.051477
77.215570	3.846356	10354.530000	564.051477
76.890271	4.546260	11839.990000	563.701765
76.127274	4.196286	9157.909444	563.701765
76.461938	3.846835	10373.947778	563.701765
74.661238	4.196809	9250.143889	563.701765
74.586633	4.196809	9327.815000	563.701765
76.722575	4.196809	9327.815000	563.701765
77.734893	3.846356	9097.228889	564.051477
