power (mW)	FWHM	peak value	peak location
76.543778	4.197331	4835.026667	563.352009
76.598907	4.197331	4912.697778	563.352009
75.723737	4.197331	4774.346111	563.352009
75.126975	4.547392	4463.661667	563.352009
75.621699	4.547392	4463.661667	563.352009
77.093061	4.197331	5400.569444	563.352009
76.357956	4.197331	5400.569444	563.352009
76.129957	4.546826	4728.228889	563.352009
75.779855	4.546826	4728.228889	563.352009
75.824885	3.847314	5313.189444	563.701765
74.869947	3.847314	5320.471111	563.352009
74.023823	4.546826	4723.374444	563.352009
74.375415	3.847314	5099.593889	563.701765
74.571377	4.546826	4888.425556	563.701765
75.750088	3.847314	5072.894444	563.352009
76.197507	3.847314	5072.894444	563.352009
75.782504	4.196809	5247.654444	563.701765
77.166705	3.847314	5247.654444	563.701765
77.782973	3.847314	5669.991111	563.701765
75.585622	3.847314	5337.461667	563.701765
77.259826	4.546826	4458.807222	563.352009
76.716050	4.546826	4458.807222	563.352009
77.045953	4.197331	4327.737222	563.352009
76.093711	4.197331	4854.444444	563.352009
75.266074	4.196809	3393.256667	563.701765
76.032861	4.546826	3572.871111	563.701765
77.640440	4.546826	4048.606667	563.701765
77.168422	4.196809	5475.813333	563.701765
76.853990	4.196809	4526.769444	563.701765
76.385599	4.546826	3815.593333	563.701765
75.287023	4.546826	3815.593333	563.701765
77.826082	4.546826	4359.291111	563.352009
74.470247	4.196809	4665.121111	563.701765
75.305172	4.196809	4927.261111	563.701765
76.419959	4.196809	5288.917222	563.701765
75.801817	4.196809	4410.262778	563.701765
75.844524	4.896886	4553.468889	563.352009
76.346507	4.546826	4048.606667	563.701765
75.753906	4.196809	5031.631667	563.701765
76.406426	4.196809	4347.155000	563.701765
76.958758	4.196809	5274.353889	563.701765
77.085604	4.896886	4245.211667	563.352009
76.715130	4.546826	3313.158333	563.701765
74.572704	4.546826	3572.871111	563.352009
75.210538	4.196809	4616.576667	563.701765
75.010396	4.196809	4616.576667	563.701765
76.135690	4.196809	4318.028333	563.701765
75.299630	4.196809	4318.028333	563.701765
75.378996	4.546826	3701.513889	563.701765
76.535571	4.546826	4376.281667	563.701765
76.818495	4.546826	4233.075556	563.701765
76.037220	3.847314	3696.659444	563.701765
76.575833	4.546826	3233.060000	563.701765
