power (mW)	FWHM	peak value	peak location
97.180350	6.292858	5269.499444	564.750771
97.013212	5.593653	3822.875000	564.750771
96.604158	5.942885	6514.664444	564.750771
96.920697	5.243723	6490.392222	565.100353
94.383163	5.243723	6490.392222	565.100353
95.532113	6.292074	6886.029444	565.100353
97.554497	5.942144	7611.768889	565.100353
95.464027	6.291289	8655.474444	565.449891
95.706695	6.641219	8514.695556	565.100353
96.669450	5.942144	9310.824444	565.100353
97.207853	5.942144	9009.848889	565.100353
95.917512	5.942144	9327.815000	565.100353
96.505176	5.942144	9653.062778	565.100353
96.243015	5.942144	11170.076667	565.100353
95.260044	6.641219	10284.140556	565.100353
94.425533	5.941402	12565.729444	565.449891
96.125674	6.291289	17293.958333	565.449891
96.658169	6.291289	12762.334444	565.449891
96.117653	6.640390	14235.658333	565.449891
95.732464	5.592257	16565.791667	565.449891
95.560151	5.941402	15531.795000	565.799385
94.813213	5.591559	18927.478889	565.799385
96.115214	5.940660	21713.930000	565.799385
94.572047	5.941402	20866.829444	565.799385
94.870647	5.241760	25490.687778	566.148836
96.680853	5.940660	26995.565556	565.799385
97.258779	5.941402	25624.185000	565.799385
96.613367	5.241760	31456.800000	566.148836
97.337790	5.591559	26497.985000	565.799385
98.790042	5.591559	24410.573889	565.799385
97.498076	5.591559	24410.573889	565.799385
96.828339	4.892615	28284.420556	565.799385
95.517421	5.591559	26211.572778	565.799385
97.215298	5.242414	24908.154444	565.449891
96.207717	4.543426	15340.044444	565.799385
96.868409	4.892615	27917.910000	565.799385
97.208418	4.893226	28495.588889	565.449891
98.573172	4.893226	28495.588889	565.449891
97.975018	5.242414	26910.612778	565.449891
96.993399	4.543426	32442.252222	565.449891
95.348223	4.893226	27247.996667	565.449891
96.361683	4.893226	27252.851111	565.449891
96.237089	4.543993	31612.142222	565.449891
98.326080	4.194194	32024.770000	565.449891
96.490642	4.543993	32876.725000	565.449891
96.219178	4.194194	33367.023889	565.449891
96.537196	4.194194	31786.902222	565.449891
97.960339	4.893226	30478.629444	565.449891
97.424950	4.543426	29250.455000	565.799385
96.699392	4.543426	26243.126667	565.449891
97.124453	3.844438	28248.012222	565.799385
95.112569	4.193670	26680.026667	565.799385
