power (mW)	FWHM	peak value	peak location
11.973298	6.988574	10990.462222	565.799385
12.230310	6.989447	10585.116111	540.877741
12.823822	6.291289	14895.862778	543.344427
11.808772	5.942144	27017.410556	540.525187
11.278790	6.292074	19162.919444	540.525187
11.458945	6.292858	19046.412778	543.696641
11.232184	5.593653	22925.113889	564.750771
12.352483	5.244377	27434.892778	564.401146
11.237024	5.594350	32752.936667	564.401146
12.081924	5.594350	26012.540556	539.114546
11.371003	5.595047	28582.968889	564.051477
11.434612	5.595047	32017.488333	539.819951
11.807289	5.245684	31522.335000	563.701765
12.221287	5.595744	27325.667778	563.701765
11.944054	5.945848	30284.451667	544.048811
12.279131	5.595744	26449.440556	540.172591
12.034509	5.246337	33442.267778	541.230253
11.661969	5.945848	27291.686667	540.172591
11.821052	5.596441	29201.910556	538.761779
11.761771	5.596441	26531.966111	539.467270
11.097090	6.295995	23590.172778	539.467270
11.989627	5.946588	23444.539444	542.287532
12.003374	5.946588	25561.077222	540.877741
11.740335	5.946588	23920.275000	563.002209
12.139279	6.646186	19529.430000	542.639873
12.718879	5.946588	21383.827778	538.761779
11.765432	6.646186	20070.700556	540.877741
11.949504	6.296779	19051.267222	541.230253
11.630182	5.946588	21524.606667	541.230253
12.160204	6.646186	17903.191111	563.002209
11.775598	6.296779	18704.174444	544.400939
12.676842	6.296779	17216.287222	542.992172
12.347142	5.947328	20650.806667	543.696641
11.022447	5.947328	20789.158333	540.172591
11.547984	6.996420	13755.068333	540.877741
11.264011	6.296779	14590.032778	539.467270
11.759452	6.646186	13315.741111	562.652366
12.321897	6.296779	13951.673333	541.582722
12.028809	7.345783	12539.030000	544.400939
11.820133	7.345783	12157.956111	562.652366
11.793180	8.394656	11000.171111	542.639873
12.527557	7.695103	10735.603889	541.582722
12.099177	8.394656	10386.083889	540.877741
11.793765	8.044379	10524.435556	562.652366
12.199186	7.695103	10514.726667	545.457066
12.197182	7.695103	10223.460000	541.582722
12.307275	10.140381	9172.472778	542.639873
12.203543	10.140381	8162.748333	563.002209
11.797178	9.442222	8609.357222	539.819951
12.215370	10.140381	7728.275556	539.114546
12.088311	9.442222	8468.578333	562.652366
11.914051	11.536172	7388.464444	540.525187
12.016274	7.695103	9463.739444	562.652366
12.909124	9.791323	8065.659444	542.992172
12.110865	9.093077	8546.249444	562.652366
12.556675	9.093077	7975.852222	562.652366
12.055031	8.742800	8051.096111	544.400939
12.149022	11.536172	6740.396111	563.002209
11.103601	10.489394	7174.868889	563.002209
12.062290	13.978864	5558.338889	544.048811
12.234586	9.442222	7136.033333	541.230253
12.236451	12.233805	6262.233333	563.002209
11.899435	11.188685	6558.354444	541.582722
11.937694	13.281582	5856.887222	541.582722
11.499932	15.372899	5296.198889	563.002209
11.944443	11.187290	6844.766667	540.877741
11.939943	9.792543	7034.090000	539.467270
12.229100	9.093077	6859.330000	562.652366
11.646642	15.024456	5339.888889	542.287532
11.116359	15.721298	5111.730000	543.344427
12.596478	15.024456	5293.771667	542.287532
11.464572	13.281582	5643.291667	540.525187
12.318934	14.675969	5119.011667	541.582722
11.672775	14.675969	5075.321667	540.525187
11.794684	15.719332	4801.045556	542.639873
11.504009	13.281582	5347.170556	541.582722
11.564703	19.550777	4250.066111	542.287532
12.072520	19.901141	4325.310000	563.352009
11.565601	19.205270	4410.262778	539.819951
11.690230	17.462632	4650.557778	563.002209
12.635762	18.158857	4424.826111	540.877741
11.802514	13.978864	5339.888889	539.114546
12.457403	17.114453	4262.202222	543.344427
12.318047	18.509221	4344.727778	563.352009
12.361599	18.506903	4536.478333	563.002209
11.705223	20.246473	4111.714444	539.467270
12.259708	18.506903	4177.249444	541.582722
11.620904	20.944618	3983.071667	563.352009
11.935591	21.292355	3929.672778	545.809023
12.210946	15.721298	4599.586111	540.877741
12.189440	20.944618	3771.903333	545.457066
11.805024	19.550777	3871.419444	544.400939
11.657832	16.069653	4466.088889	542.639873
12.228451	24.770403	3349.566667	563.701765
12.370644	18.854905	3997.635000	540.525187
11.930887	24.419995	3293.740556	541.582722
11.709742	19.550777	3793.748333	539.114546
11.555261	23.377847	3402.965556	540.525187
11.996399	25.812151	3143.252778	563.701765
12.298471	24.069631	3507.336111	542.992172
