power (mW)	FWHM	peak value	peak location
12.441031	12.569974	6174.853333	566.498243
12.148389	7.337544	9308.397222	538.761779
12.061854	6.289718	11876.398333	539.114546
12.614046	5.591559	14315.756667	541.935148
12.263516	5.941402	15255.091667	544.400939
11.520144	5.243069	18820.681111	541.230253
11.534101	5.592955	16791.523333	565.100353
11.974772	5.243723	19451.758889	565.100353
12.217412	5.593653	19791.570000	539.819951
12.443101	5.244377	20029.437778	539.114546
12.497257	5.594350	21514.897778	541.935148
12.097158	5.245030	21490.625556	543.696641
12.051796	5.245030	20036.719444	564.051477
12.566991	5.245684	19408.068889	538.761779
12.480085	5.245684	19039.131111	540.877741
12.417687	5.595744	18757.573333	539.114546
12.491379	5.945848	17689.595556	563.352009
12.346464	6.295211	16364.332222	541.230253
12.143470	5.945848	16837.640556	539.467270
12.037607	5.596441	17556.098333	539.467270
11.678285	5.596441	17141.043333	563.352009
11.815546	6.295995	15946.850000	543.344427
11.603123	5.946588	16461.421111	544.048811
11.697516	5.246990	16767.251111	544.400939
12.125418	5.946588	14517.216111	563.002209
12.465321	5.946588	14864.308889	543.696641
12.764155	6.646186	12738.062222	563.002209
12.181026	4.897496	16053.647778	544.048811
12.595957	6.646186	12458.931667	542.287532
12.322589	5.597137	17485.708889	540.172591
12.336269	7.345783	11679.793333	541.935148
12.108849	6.646186	12174.946667	563.002209
12.065086	6.996420	12131.256667	540.525187
12.221387	6.996420	11546.296111	540.172591
11.984295	6.995549	10410.356111	541.582722
12.028660	6.646186	11143.377222	542.639873
12.010535	6.296779	11039.006667	542.287532
12.585629	7.345783	9417.622222	540.877741
12.103115	6.646186	10422.492222	541.582722
12.162165	6.995549	9116.646667	563.002209
12.140040	6.646186	9337.523889	542.639873
12.449160	6.646186	9873.940000	538.056118
12.180371	6.646186	8769.553889	541.230253
12.045980	6.646186	9517.138333	562.652366
12.290128	8.393611	7262.248889	539.467270
11.707666	7.694145	7560.797222	541.582722
11.677425	8.742800	7048.653333	563.002209
11.767681	7.344869	7742.838889	538.761779
12.348491	8.393611	7296.230000	563.002209
12.297560	8.393611	7119.042778	563.002209
12.348672	6.646186	7961.288889	544.048811
12.362359	9.790103	6531.655000	539.467270
12.201938	8.393611	6745.250556	540.877741
12.187993	9.441046	6216.116111	544.753024
11.877931	9.090812	6002.520556	563.002209
11.374184	8.044379	6565.636111	540.172591
12.661484	9.790103	5686.981667	542.992172
11.790780	8.393611	6660.297778	563.002209
12.573185	10.488087	5390.860556	545.457066
11.638234	9.441046	6092.327778	539.819951
11.835402	11.185895	5140.856667	563.352009
12.037327	12.232278	5169.983333	563.002209
11.318248	9.441046	5565.620556	563.002209
11.947873	11.534733	5150.565556	539.467270
11.788479	11.534733	5225.809444	542.639873
12.406546	12.233805	5004.932222	563.002209
11.521308	8.043377	5614.165000	543.344427
11.331334	12.580984	4769.491667	543.344427
11.999918	13.975371	4398.126667	541.582722
11.631658	11.534733	4854.444444	563.002209
12.377005	12.929647	4538.905556	563.352009
11.958270	11.185895	4740.365000	539.467270
11.850948	16.067643	3888.410000	540.172591
12.107736	15.022578	4337.446111	563.352009
11.946529	11.883527	4604.440556	542.992172
12.199335	16.415910	4123.850556	542.639873
12.084635	15.369055	3859.283333	539.467270
11.863006	19.200457	3818.020556	539.467270
12.013091	16.065633	4291.328889	544.048811
12.230471	19.898647	3560.735000	540.525187
11.976434	15.020700	4228.221111	542.287532
12.180169	17.112311	3881.128333	542.639873
12.058692	18.504585	3582.580000	538.761779
12.061547	17.808536	3720.931667	542.287532
11.946583	21.982176	3322.867222	541.582722
12.077591	13.626841	4453.952778	542.287532
11.588361	14.323858	4279.192778	545.809023
12.466903	16.413855	3793.748333	541.582722
11.114028	19.198049	3767.048889	541.230253
11.807381	25.458540	2985.483333	564.051477
11.339100	21.287011	3347.139444	563.701765
11.711891	23.722293	3165.097778	563.701765
12.308437	22.677163	3223.351111	542.639873
11.975473	18.154307	3497.627222	539.819951
11.757937	17.806305	3657.823889	563.352009
11.157031	20.939363	3444.228333	540.877741
11.720404	24.410782	3038.882222	541.935148
11.676294	19.548326	3390.829444	540.172591
12.019783	22.329691	3133.543889	563.352009
11.826121	26.503092	2856.840556	539.114546
